Data from Location4.07152019.Energy5.Lamp.07192019.3%Agarose_HRD10591_15-24-02-577.txt Node
Date: Fri Jul 19 15:24:02 EDT 2019
User: cochatt
Spectrometer: HR+D1059
Trigger mode: 1
Integration Time (sec): 1.000000E-1
Scans to average: 1
Electric dark correction enabled: true
Nonlinearity correction enabled: false
Boxcar width: 0
XAxis mode: Wavelengths
Number of Pixels in Spectrum: 2048
>>>>>Begin Spectral Data<<<<<
223.165	-2.81
223.4	-2.81
223.635	-2.81
223.869	0.19
224.104	-13.81
224.338	-24.81
224.573	-12.81
224.808	-5.81
225.042	-6.81
225.277	-12.81
225.511	2.19
225.746	2.19
225.98	5.19
226.215	4.19
226.449	-11.81
226.683	25.19
226.918	22.19
227.152	30.19
227.387	32.19
227.621	32.19
227.856	41.19
228.09	37.19
228.324	38.19
228.559	44.19
228.793	52.19
229.027	75.19
229.262	70.19
229.496	58.19
229.73	76.19
229.964	74.19
230.199	69.19
230.433	74.19
230.667	77.19
230.901	67.19
231.136	67.19
231.37	69.19
231.604	82.19
231.838	79.19
232.072	90.19
232.306	82.19
232.541	78.19
232.775	79.19
233.009	81.19
233.243	74.19
233.477	86.19
233.711	75.19
233.945	72.19
234.179	75.19
234.413	81.19
234.647	88.19
234.881	65.19
235.115	68.19
235.349	66.19
235.583	87.19
235.817	75.19
236.051	72.19
236.285	87.19
236.519	71.19
236.753	70.19
236.987	72.19
237.221	76.19
237.455	73.19
237.689	72.19
237.922	87.19
238.156	70.19
238.39	65.19
238.624	78.19
238.858	74.19
239.091	64.19
239.325	74.19
239.559	81.19
239.793	72.19
240.027	82.19
240.26	71.19
240.494	67.19
240.728	54.19
240.961	89.19
241.195	77.19
241.429	83.19
241.662	82.19
241.896	84.19
242.13	85.19
242.363	75.19
242.597	59.19
242.83	79.19
243.064	80.19
243.298	74.19
243.531	75.19
243.765	72.19
243.998	74.19
244.232	71.19
244.465	66.19
244.699	83.19
244.932	84.19
245.166	84.19
245.399	85.19
245.633	79.19
245.866	80.19
246.099	75.19
246.333	73.19
246.566	67.19
246.8	73.19
247.033	65.19
247.266	72.19
247.5	74.19
247.733	78.19
247.966	87.19
248.2	71.19
248.433	75.19
248.666	81.19
248.899	76.19
249.133	76.19
249.366	83.19
249.599	77.19
249.832	70.19
250.066	70.19
250.299	71.19
250.532	79.19
250.765	81.19
250.998	68.19
251.231	80.19
251.465	91.19
251.698	73.19
251.931	84.19
252.164	74.19
252.397	68.19
252.63	78.19
252.863	70.19
253.096	86.19
253.329	79.19
253.562	82.19
253.795	75.19
254.028	76.19
254.261	69.19
254.494	70.19
254.727	83.19
254.96	91.19
255.193	82.19
255.426	93.19
255.659	82.19
255.892	72.19
256.124	67.19
256.357	59.19
256.59	74.19
256.823	81.19
257.056	84.19
257.289	83.19
257.521	82.19
257.754	78.19
257.987	77.19
258.22	83.19
258.452	79.19
258.685	70.19
258.918	89.19
259.151	69.19
259.383	97.19
259.616	70.19
259.849	90.19
260.081	78.19
260.314	79.19
260.547	80.19
260.779	75.19
261.012	79.19
261.244	91.19
261.477	82.19
261.71	73.19
261.942	71.19
262.175	74.19
262.407	84.19
262.64	71.19
262.872	71.19
263.105	75.19
263.337	80.19
263.57	74.19
263.802	78.19
264.035	75.19
264.267	70.19
264.499	77.19
264.732	78.19
264.964	75.19
265.197	82.19
265.429	79.19
265.661	91.19
265.894	84.19
266.126	98.19
266.358	87.19
266.591	78.19
266.823	92.19
267.055	77.19
267.287	89.19
267.52	86.19
267.752	75.19
267.984	77.19
268.216	76.19
268.448	75.19
268.681	85.19
268.913	94.19
269.145	92.19
269.377	96.19
269.609	80.19
269.841	82.19
270.073	78.19
270.306	60.19
270.538	75.19
270.77	75.19
271.002	79.19
271.234	86.19
271.466	80.19
271.698	83.19
271.93	91.19
272.162	80.19
272.394	78.19
272.626	85.19
272.858	76.19
273.09	90.19
273.322	80.19
273.553	84.19
273.785	74.19
274.017	91.19
274.249	80.19
274.481	89.19
274.713	85.19
274.945	76.19
275.176	76.19
275.408	100.19
275.64	95.19
275.872	83.19
276.104	79.19
276.335	78.19
276.567	74.19
276.799	76.19
277.031	93.19
277.262	56.19
277.494	81.19
277.726	77.19
277.957	87.19
278.189	70.19
278.421	77.19
278.652	76.19
278.884	76.19
279.115	73.19
279.347	99.19
279.579	78.19
279.81	75.19
280.042	81.19
280.273	83.19
280.505	99.19
280.736	85.19
280.968	87.19
281.199	87.19
281.431	90.19
281.662	89.19
281.894	88.19
282.125	85.19
282.356	88.19
282.588	83.19
282.819	95.19
283.051	79.19
283.282	80.19
283.513	83.19
283.745	72.19
283.976	71.19
284.207	72.19
284.439	74.19
284.67	91.19
284.901	88.19
285.132	87.19
285.364	90.19
285.595	78.19
285.826	80.19
286.057	80.19
286.288	72.19
286.52	87.19
286.751	64.19
286.982	76.19
287.213	88.19
287.444	89.19
287.675	82.19
287.906	78.19
288.138	82.19
288.369	81.19
288.6	90.19
288.831	84.19
289.062	81.19
289.293	89.19
289.524	92.19
289.755	72.19
289.986	96.19
290.217	76.19
290.448	95.19
290.679	86.19
290.91	73.19
291.141	74.19
291.371	81.19
291.602	81.19
291.833	73.19
292.064	99.19
292.295	85.19
292.526	90.19
292.757	73.19
292.987	80.19
293.218	87.19
293.449	91.19
293.68	93.19
293.91	89.19
294.141	77.19
294.372	86.19
294.603	85.19
294.833	75.19
295.064	79.19
295.295	70.19
295.525	72.19
295.756	81.19
295.987	86.19
296.217	77.19
296.448	81.19
296.679	88.19
296.909	80.19
297.14	99.19
297.37	79.19
297.601	75.19
297.831	80.19
298.062	77.19
298.292	79.19
298.523	91.19
298.753	81.19
298.984	72.19
299.214	87.19
299.445	92.19
299.675	69.19
299.905	84.19
300.136	91.19
300.366	82.19
300.597	94.19
300.827	72.19
301.057	83.19
301.288	95.19
301.518	80.19
301.748	79.19
301.979	77.19
302.209	87.19
302.439	91.19
302.669	75.19
302.9	74.19
303.13	91.19
303.36	86.19
303.59	77.19
303.82	76.19
304.051	87.19
304.281	84.19
304.511	105.19
304.741	77.19
304.971	74.19
305.201	82.19
305.431	82.19
305.661	89.19
305.891	82.19
306.121	80.19
306.352	80.19
306.582	80.19
306.812	80.19
307.042	73.19
307.272	73.19
307.502	76.19
307.731	96.19
307.961	79.19
308.191	79.19
308.421	94.19
308.651	85.19
308.881	80.19
309.111	82.19
309.341	88.19
309.571	91.19
309.8	80.19
310.03	90.19
310.26	70.19
310.49	83.19
310.72	86.19
310.949	97.19
311.179	79.19
311.409	66.19
311.639	91.19
311.868	77.19
312.098	73.19
312.328	87.19
312.557	88.19
312.787	77.19
313.017	89.19
313.246	80.19
313.476	86.19
313.706	64.19
313.935	82.19
314.165	93.19
314.394	84.19
314.624	89.19
314.853	85.19
315.083	85.19
315.312	90.19
315.542	86.19
315.771	91.19
316.001	87.19
316.23	99.19
316.46	88.19
316.689	88.19
316.919	88.19
317.148	80.19
317.377	94.19
317.607	88.19
317.836	75.19
318.065	81.19
318.295	87.19
318.524	82.19
318.753	86.19
318.983	87.19
319.212	74.19
319.441	85.19
319.67	91.19
319.9	72.19
320.129	74.19
320.358	81.19
320.587	76.19
320.816	79.19
321.046	76.19
321.275	83.19
321.504	73.19
321.733	77.19
321.962	65.19
322.191	83.19
322.42	76.19
322.649	77.19
322.878	92.19
323.108	87.19
323.337	83.19
323.566	81.19
323.795	103.19
324.024	86.19
324.253	91.19
324.482	85.19
324.71	74.19
324.939	103.19
325.168	94.19
325.397	78.19
325.626	70.19
325.855	86.19
326.084	72.19
326.313	86.19
326.542	79.19
326.77	74.19
326.999	76.19
327.228	91.19
327.457	84.19
327.686	110.19
327.914	87.19
328.143	99.19
328.372	85.19
328.6	89.19
328.829	71.19
329.058	97.19
329.287	75.19
329.515	81.19
329.744	84.19
329.972	73.19
330.201	91.19
330.43	84.19
330.658	85.19
330.887	87.19
331.115	79.19
331.344	72.19
331.572	82.19
331.801	80.19
332.03	80.19
332.258	74.19
332.486	71.19
332.715	83.19
332.943	86.19
333.172	88.19
333.4	75.19
333.629	82.19
333.857	96.19
334.085	72.19
334.314	83.19
334.542	82.19
334.771	76.19
334.999	91.19
335.227	72.19
335.455	95.19
335.684	87.19
335.912	87.19
336.14	81.19
336.369	89.19
336.597	87.19
336.825	76.19
337.053	79.19
337.281	80.19
337.51	90.19
337.738	78.19
337.966	67.19
338.194	79.19
338.422	86.19
338.65	92.19
338.878	77.19
339.106	92.19
339.334	92.19
339.562	79.19
339.79	62.19
340.018	80.19
340.246	94.19
340.474	85.19
340.702	71.19
340.93	74.19
341.158	82.19
341.386	89.19
341.614	85.19
341.842	82.19
342.07	70.19
342.298	80.19
342.526	77.19
342.754	82.19
342.981	83.19
343.209	81.19
343.437	98.19
343.665	88.19
343.893	77.19
344.12	94.19
344.348	76.19
344.576	82.19
344.804	96.19
345.031	100.19
345.259	84.19
345.487	78.19
345.714	93.19
345.942	81.19
346.17	91.19
346.397	82.19
346.625	80.19
346.853	84.19
347.08	81.19
347.308	93.19
347.535	93.19
347.763	92.19
347.99	92.19
348.218	67.19
348.445	83.19
348.673	90.19
348.9	68.19
349.128	97.19
349.355	71.19
349.583	86.19
349.81	85.19
350.037	87.19
350.265	87.19
350.492	91.19
350.72	83.19
350.947	83.19
351.174	82.19
351.402	69.19
351.629	82.19
351.856	76.19
352.083	89.19
352.311	84.19
352.538	70.19
352.765	84.19
352.992	89.19
353.22	83.19
353.447	82.19
353.674	74.19
353.901	85.19
354.128	67.19
354.355	84.19
354.583	75.19
354.81	79.19
355.037	94.19
355.264	96.19
355.491	83.19
355.718	82.19
355.945	83.19
356.172	88.19
356.399	84.19
356.626	81.19
356.853	83.19
357.08	83.19
357.307	80.19
357.534	83.19
357.761	77.19
357.988	75.19
358.215	82.19
358.441	88.19
358.668	75.19
358.895	93.19
359.122	86.19
359.349	82.19
359.576	80.19
359.802	86.19
360.029	104.19
360.256	82.19
360.483	70.19
360.709	73.19
360.936	84.19
361.163	87.19
361.39	80.19
361.616	64.19
361.843	86.19
362.07	95.19
362.296	90.19
362.523	85.19
362.749	88.19
362.976	84.19
363.203	94.19
363.429	94.19
363.656	85.19
363.882	84.19
364.109	88.19
364.335	83.19
364.562	79.19
364.788	78.19
365.015	88.19
365.241	88.19
365.468	96.19
365.694	82.19
365.92	76.19
366.147	86.19
366.373	82.19
366.599	94.19
366.826	84.19
367.052	86.19
367.278	88.19
367.505	88.19
367.731	87.19
367.957	83.19
368.184	90.19
368.41	84.19
368.636	92.19
368.862	76.19
369.089	91.19
369.315	84.19
369.541	74.19
369.767	82.19
369.993	85.19
370.219	87.19
370.445	82.19
370.672	88.19
370.898	89.19
371.124	89.19
371.35	88.19
371.576	94.19
371.802	76.19
372.028	82.19
372.254	76.19
372.48	86.19
372.706	78.19
372.932	84.19
373.158	90.19
373.384	94.19
373.61	90.19
373.835	69.19
374.061	77.19
374.287	76.19
374.513	88.19
374.739	84.19
374.965	83.19
375.191	95.19
375.416	78.19
375.642	87.19
375.868	90.19
376.094	89.19
376.319	88.19
376.545	102.19
376.771	74.19
376.997	91.19
377.222	93.19
377.448	79.19
377.674	84.19
377.899	98.19
378.125	107.19
378.35	85.19
378.576	98.19
378.802	72.19
379.027	86.19
379.253	82.19
379.478	72.19
379.704	79.19
379.929	78.19
380.155	83.19
380.38	74.19
380.606	86.19
380.831	86.19
381.057	79.19
381.282	87.19
381.507	102.19
381.733	83.19
381.958	82.19
382.184	78.19
382.409	91.19
382.634	82.19
382.86	88.19
383.085	82.19
383.31	78.19
383.535	91.19
383.761	85.19
383.986	93.19
384.211	75.19
384.436	80.19
384.662	87.19
384.887	95.19
385.112	89.19
385.337	88.19
385.562	93.19
385.787	87.19
386.013	91.19
386.238	88.19
386.463	87.19
386.688	90.19
386.913	83.19
387.138	82.19
387.363	84.19
387.588	81.19
387.813	86.19
388.038	82.19
388.263	95.19
388.488	94.19
388.713	89.19
388.938	94.19
389.163	94.19
389.387	94.19
389.612	83.19
389.837	91.19
390.062	87.19
390.287	87.19
390.512	85.19
390.736	91.19
390.961	75.19
391.186	86.19
391.411	107.19
391.636	79.19
391.86	94.19
392.085	84.19
392.31	81.19
392.534	95.19
392.759	90.19
392.984	88.19
393.208	86.19
393.433	90.19
393.658	74.19
393.882	94.19
394.107	63.19
394.331	82.19
394.556	92.19
394.78	103.19
395.005	86.19
395.229	91.19
395.454	91.19
395.678	82.19
395.903	97.19
396.127	94.19
396.352	91.19
396.576	95.19
396.801	89.19
397.025	83.19
397.249	94.19
397.474	82.19
397.698	93.19
397.922	95.19
398.147	91.19
398.371	96.19
398.595	84.19
398.82	70.19
399.044	80.19
399.268	83.19
399.492	79.19
399.717	85.19
399.941	89.19
400.165	92.19
400.389	86.19
400.613	95.19
400.837	87.19
401.062	86.19
401.286	90.19
401.51	88.19
401.734	91.19
401.958	98.19
402.182	103.19
402.406	95.19
402.63	80.19
402.854	111.19
403.078	99.19
403.302	103.19
403.526	89.19
403.75	93.19
403.974	96.19
404.198	90.19
404.422	76.19
404.645	66.19
404.869	90.19
405.093	85.19
405.317	102.19
405.541	86.19
405.765	94.19
405.988	95.19
406.212	101.19
406.436	83.19
406.66	91.19
406.883	105.19
407.107	100.19
407.331	74.19
407.555	88.19
407.778	99.19
408.002	83.19
408.226	91.19
408.449	96.19
408.673	86.19
408.896	88.19
409.12	95.19
409.344	101.19
409.567	88.19
409.791	98.19
410.014	88.19
410.238	84.19
410.461	98.19
410.685	107.19
410.908	102.19
411.132	90.19
411.355	86.19
411.578	88.19
411.802	98.19
412.025	86.19
412.249	93.19
412.472	100.19
412.695	81.19
412.919	90.19
413.142	102.19
413.365	95.19
413.589	89.19
413.812	97.19
414.035	81.19
414.258	99.19
414.482	90.19
414.705	93.19
414.928	84.19
415.151	92.19
415.374	91.19
415.597	105.19
415.821	110.19
416.044	86.19
416.267	95.19
416.49	94.19
416.713	92.19
416.936	89.19
417.159	90.19
417.382	97.19
417.605	92.19
417.828	91.19
418.051	98.19
418.274	100.19
418.497	82.19
418.72	84.19
418.943	96.19
419.166	86.19
419.389	88.19
419.611	88.19
419.834	103.19
420.057	104.19
420.28	102.19
420.503	94.19
420.726	100.19
420.948	111.19
421.171	81.19
421.394	94.19
421.617	91.19
421.839	96.19
422.062	102.19
422.285	102.19
422.507	99.19
422.73	100.19
422.953	100.19
423.175	86.19
423.398	100.19
423.621	101.19
423.843	95.19
424.066	111.19
424.288	107.19
424.511	103.19
424.733	106.19
424.956	94.19
425.178	85.19
425.401	97.19
425.623	88.19
425.846	98.19
426.068	91.19
426.291	95.19
426.513	77.19
426.735	99.19
426.958	98.19
427.18	104.19
427.402	116.19
427.625	98.19
427.847	89.19
428.069	78.19
428.292	100.19
428.514	96.19
428.736	98.19
428.958	104.19
429.181	99.19
429.403	99.19
429.625	100.19
429.847	99.19
430.069	96.19
430.292	84.19
430.514	94.19
430.736	91.19
430.958	103.19
431.18	94.19
431.402	84.19
431.624	91.19
431.846	89.19
432.068	101.19
432.29	88.19
432.512	91.19
432.734	85.19
432.956	86.19
433.178	90.19
433.4	87.19
433.622	86.19
433.844	99.19
434.066	76.19
434.287	96.19
434.509	91.19
434.731	99.19
434.953	94.19
435.175	89.19
435.397	92.19
435.618	97.19
435.84	81.19
436.062	92.19
436.284	108.19
436.505	109.19
436.727	78.19
436.949	78.19
437.17	98.19
437.392	95.19
437.614	76.19
437.835	86.19
438.057	71.19
438.278	84.19
438.5	88.19
438.721	88.19
438.943	88.19
439.165	95.19
439.386	105.19
439.608	104.19
439.829	94.19
440.05	110.19
440.272	107.19
440.493	88.19
440.715	105.19
440.936	97.19
441.158	97.19
441.379	86.19
441.6	99.19
441.822	115.19
442.043	102.19
442.264	96.19
442.486	109.19
442.707	110.19
442.928	99.19
443.149	106.19
443.371	90.19
443.592	93.19
443.813	99.19
444.034	98.19
444.255	85.19
444.476	94.19
444.698	98.19
444.919	102.19
445.14	243.19
445.361	160.19
445.582	94.19
445.803	120.19
446.024	86.19
446.245	112.19
446.466	99.19
446.687	101.19
446.908	96.19
447.129	106.19
447.35	92.19
447.571	92.19
447.792	87.19
448.013	89.19
448.234	97.19
448.455	111.19
448.675	102.19
448.896	101.19
449.117	97.19
449.338	85.19
449.559	100.19
449.779	94.19
450	107.19
450.221	97.19
450.442	103.19
450.662	88.19
450.883	100.19
451.104	108.19
451.324	88.19
451.545	98.19
451.766	104.19
451.986	102.19
452.207	92.19
452.428	109.19
452.648	97.19
452.869	101.19
453.089	86.19
453.31	96.19
453.53	82.19
453.751	92.19
453.971	105.19
454.192	93.19
454.412	81.19
454.633	88.19
454.853	103.19
455.073	94.19
455.294	100.19
455.514	93.19
455.734	84.19
455.955	106.19
456.175	76.19
456.395	83.19
456.616	83.19
456.836	96.19
457.056	83.19
457.276	106.19
457.497	92.19
457.717	92.19
457.937	102.19
458.157	87.19
458.377	81.19
458.598	85.19
458.818	86.19
459.038	87.19
459.258	90.19
459.478	81.19
459.698	91.19
459.918	84.19
460.138	87.19
460.358	94.19
460.578	91.19
460.798	94.19
461.018	96.19
461.238	91.19
461.458	97.19
461.678	91.19
461.898	90.19
462.118	90.19
462.338	74.19
462.558	94.19
462.777	89.19
462.997	92.19
463.217	95.19
463.437	97.19
463.657	91.19
463.876	78.19
464.096	82.19
464.316	79.19
464.536	82.19
464.755	80.19
464.975	91.19
465.195	98.19
465.414	91.19
465.634	106.19
465.854	86.19
466.073	97.19
466.293	94.19
466.512	81.19
466.732	112.19
466.951	103.19
467.171	94.19
467.391	100.19
467.61	96.19
467.829	98.19
468.049	82.19
468.268	96.19
468.488	79.19
468.707	83.19
468.927	96.19
469.146	100.19
469.365	101.19
469.585	109.19
469.804	109.19
470.023	101.19
470.243	108.19
470.462	98.19
470.681	98.19
470.901	84.19
471.12	105.19
471.339	97.19
471.558	100.19
471.777	95.19
471.997	102.19
472.216	92.19
472.435	101.19
472.654	91.19
472.873	79.19
473.092	91.19
473.311	92.19
473.53	101.19
473.749	84.19
473.968	98.19
474.187	102.19
474.406	94.19
474.625	102.19
474.844	103.19
475.063	81.19
475.282	89.19
475.501	86.19
475.72	100.19
475.939	95.19
476.158	119.19
476.377	94.19
476.596	78.19
476.814	96.19
477.033	91.19
477.252	81.19
477.471	108.19
477.69	111.19
477.908	102.19
478.127	102.19
478.346	98.19
478.564	89.19
478.783	93.19
479.002	89.19
479.22	86.19
479.439	104.19
479.658	74.19
479.876	86.19
480.095	86.19
480.313	86.19
480.532	91.19
480.751	99.19
480.969	81.19
481.188	98.19
481.406	94.19
481.624	76.19
481.843	82.19
482.061	72.19
482.28	88.19
482.498	82.19
482.717	94.19
482.935	89.19
483.153	94.19
483.372	89.19
483.59	110.19
483.808	104.19
484.027	90.19
484.245	80.19
484.463	84.19
484.681	101.19
484.9	107.19
485.118	91.19
485.336	89.19
485.554	97.19
485.772	100.19
485.99	98.19
486.209	92.19
486.427	80.19
486.645	84.19
486.863	95.19
487.081	100.19
487.299	105.19
487.517	112.19
487.735	111.19
487.953	96.19
488.171	112.19
488.389	82.19
488.607	80.19
488.825	85.19
489.043	89.19
489.261	89.19
489.479	105.19
489.696	100.19
489.914	107.19
490.132	88.19
490.35	94.19
490.568	108.19
490.786	106.19
491.003	100.19
491.221	101.19
491.439	120.19
491.657	118.19
491.874	123.19
492.092	122.19
492.31	144.19
492.527	126.19
492.745	116.19
492.963	102.19
493.18	111.19
493.398	100.19
493.615	107.19
493.833	117.19
494.05	98.19
494.268	120.19
494.485	114.19
494.703	115.19
494.92	103.19
495.138	104.19
495.355	114.19
495.573	115.19
495.79	117.19
496.008	105.19
496.225	118.19
496.442	118.19
496.66	116.19
496.877	111.19
497.094	106.19
497.312	92.19
497.529	99.19
497.746	113.19
497.963	86.19
498.181	104.19
498.398	89.19
498.615	89.19
498.832	91.19
499.049	92.19
499.267	92.19
499.484	88.19
499.701	83.19
499.918	103.19
500.135	103.19
500.352	97.19
500.569	119.19
500.786	102.19
501.003	98.19
501.22	95.19
501.437	103.19
501.654	104.19
501.871	99.19
502.088	97.19
502.305	103.19
502.522	95.19
502.739	97.19
502.956	84.19
503.172	88.19
503.389	94.19
503.606	89.19
503.823	89.19
504.04	101.19
504.256	80.19
504.473	81.19
504.69	84.19
504.907	116.19
505.123	98.19
505.34	97.19
505.557	97.19
505.773	100.19
505.99	105.19
506.207	77.19
506.423	96.19
506.64	94.19
506.856	90.19
507.073	88.19
507.289	96.19
507.506	92.19
507.722	96.19
507.939	99.19
508.155	96.19
508.372	82.19
508.588	89.19
508.805	87.19
509.021	93.19
509.238	100.19
509.454	94.19
509.67	90.19
509.887	90.19
510.103	70.19
510.319	78.19
510.536	80.19
510.752	84.19
510.968	72.19
511.184	79.19
511.401	88.19
511.617	96.19
511.833	97.19
512.049	87.19
512.265	84.19
512.481	99.19
512.698	86.19
512.914	92.19
513.13	98.19
513.346	78.19
513.562	104.19
513.778	88.19
513.994	74.19
514.21	81.19
514.426	88.19
514.642	72.19
514.858	99.19
515.074	89.19
515.29	89.19
515.506	84.19
515.721	89.19
515.937	113.19
516.153	79.19
516.369	92.19
516.585	75.19
516.801	95.19
517.016	83.19
517.232	86.19
517.448	86.19
517.664	74.19
517.879	82.19
518.095	81.19
518.311	78.19
518.527	82.19
518.742	79.19
518.958	105.19
519.173	97.19
519.389	96.19
519.605	92.19
519.82	94.19
520.036	86.19
520.251	95.19
520.467	86.19
520.682	72.19
520.898	94.19
521.113	87.19
521.329	83.19
521.544	88.19
521.76	102.19
521.975	80.19
522.19	89.19
522.406	83.19
522.621	80.19
522.836	88.19
523.052	86.19
523.267	94.19
523.482	88.19
523.698	97.19
523.913	90.19
524.128	87.19
524.343	99.19
524.559	83.19
524.774	94.19
524.989	104.19
525.204	98.19
525.419	108.19
525.634	104.19
525.849	107.19
526.064	93.19
526.28	93.19
526.495	88.19
526.71	96.19
526.925	68.19
527.14	79.19
527.355	76.19
527.57	84.19
527.785	92.19
527.999	83.19
528.214	89.19
528.429	85.19
528.644	81.19
528.859	94.19
529.074	115.19
529.289	100.19
529.503	106.19
529.718	85.19
529.933	106.19
530.148	97.19
530.363	85.19
530.577	79.19
530.792	74.19
531.007	82.19
531.221	79.19
531.436	87.19
531.651	80.19
531.865	96.19
532.08	81.19
532.295	87.19
532.509	82.19
532.724	84.19
532.938	91.19
533.153	76.19
533.367	81.19
533.582	88.19
533.796	98.19
534.011	95.19
534.225	86.19
534.44	86.19
534.654	92.19
534.868	76.19
535.083	92.19
535.297	92.19
535.511	87.19
535.726	86.19
535.94	102.19
536.154	83.19
536.369	81.19
536.583	89.19
536.797	81.19
537.011	94.19
537.225	86.19
537.44	79.19
537.654	85.19
537.868	81.19
538.082	83.19
538.296	79.19
538.51	82.19
538.724	100.19
538.938	90.19
539.153	79.19
539.367	90.19
539.581	94.19
539.795	97.19
540.009	100.19
540.222	73.19
540.436	94.19
540.65	94.19
540.864	119.19
541.078	98.19
541.292	94.19
541.506	98.19
541.72	98.19
541.934	104.19
542.147	118.19
542.361	116.19
542.575	112.19
542.789	101.19
543.002	105.19
543.216	97.19
543.43	101.19
543.644	83.19
543.857	95.19
544.071	109.19
544.285	128.19
544.498	119.19
544.712	105.19
544.925	105.19
545.139	110.19
545.352	114.19
545.566	94.19
545.779	101.19
545.993	91.19
546.206	117.19
546.42	115.19
546.633	111.19
546.847	103.19
547.06	113.19
547.274	99.19
547.487	114.19
547.7	110.19
547.914	115.19
548.127	108.19
548.34	92.19
548.554	118.19
548.767	113.19
548.98	116.19
549.193	106.19
549.407	110.19
549.62	106.19
549.833	101.19
550.046	91.19
550.259	100.19
550.473	99.19
550.686	97.19
550.899	112.19
551.112	104.19
551.325	103.19
551.538	100.19
551.751	99.19
551.964	103.19
552.177	92.19
552.39	93.19
552.603	93.19
552.816	94.19
553.029	128.19
553.242	116.19
553.455	110.19
553.667	112.19
553.88	104.19
554.093	99.19
554.306	101.19
554.519	91.19
554.732	107.19
554.944	101.19
555.157	96.19
555.37	106.19
555.583	109.19
555.795	104.19
556.008	94.19
556.221	94.19
556.433	92.19
556.646	92.19
556.859	93.19
557.071	96.19
557.284	99.19
557.496	100.19
557.709	96.19
557.921	94.19
558.134	96.19
558.346	118.19
558.559	111.19
558.771	99.19
558.984	107.19
559.196	89.19
559.409	98.19
559.621	104.19
559.833	106.19
560.046	97.19
560.258	91.19
560.47	99.19
560.683	101.19
560.895	88.19
561.107	88.19
561.32	94.19
561.532	100.19
561.744	102.19
561.956	97.19
562.168	90.19
562.381	110.19
562.593	87.19
562.805	82.19
563.017	91.19
563.229	89.19
563.441	104.19
563.653	105.19
563.865	101.19
564.077	81.19
564.289	91.19
564.501	91.19
564.713	100.19
564.925	90.19
565.137	99.19
565.349	84.19
565.561	81.19
565.773	99.19
565.985	111.19
566.197	84.19
566.408	88.19
566.62	99.19
566.832	99.19
567.044	103.19
567.255	91.19
567.467	81.19
567.679	88.19
567.891	80.19
568.102	107.19
568.314	92.19
568.526	88.19
568.737	77.19
568.949	91.19
569.161	83.19
569.372	82.19
569.584	98.19
569.795	84.19
570.007	80.19
570.218	93.19
570.43	82.19
570.641	89.19
570.853	88.19
571.064	72.19
571.276	81.19
571.487	96.19
571.698	97.19
571.91	92.19
572.121	80.19
572.333	88.19
572.544	83.19
572.755	92.19
572.966	88.19
573.178	92.19
573.389	90.19
573.6	87.19
573.811	86.19
574.023	80.19
574.234	79.19
574.445	86.19
574.656	91.19
574.867	94.19
575.078	87.19
575.289	77.19
575.501	90.19
575.712	94.19
575.923	87.19
576.134	85.19
576.345	88.19
576.556	88.19
576.767	90.19
576.978	79.19
577.188	83.19
577.399	82.19
577.61	74.19
577.821	88.19
578.032	67.19
578.243	85.19
578.454	78.19
578.665	85.19
578.875	83.19
579.086	96.19
579.297	88.19
579.508	86.19
579.718	97.19
579.929	93.19
580.14	67.19
580.35	81.19
580.561	95.19
580.772	91.19
580.982	96.19
581.193	92.19
581.403	79.19
581.614	86.19
581.825	85.19
582.035	79.19
582.246	83.19
582.456	82.19
582.667	95.19
582.877	83.19
583.087	85.19
583.298	86.19
583.508	95.19
583.719	82.19
583.929	89.19
584.139	89.19
584.35	76.19
584.56	86.19
584.77	86.19
584.981	81.19
585.191	77.19
585.401	91.19
585.611	82.19
585.821	85.19
586.032	82.19
586.242	80.19
586.452	85.19
586.662	85.19
586.872	90.19
587.082	85.19
587.292	85.19
587.502	87.19
587.713	76.19
587.923	92.19
588.133	74.19
588.343	89.19
588.553	75.19
588.762	93.19
588.972	80.19
589.182	71.19
589.392	86.19
589.602	87.19
589.812	71.19
590.022	85.19
590.232	96.19
590.441	87.19
590.651	87.19
590.861	83.19
591.071	92.19
591.281	87.19
591.49	82.19
591.7	94.19
591.91	76.19
592.119	76.19
592.329	92.19
592.539	89.19
592.748	76.19
592.958	94.19
593.167	79.19
593.377	81.19
593.587	84.19
593.796	96.19
594.006	92.19
594.215	87.19
594.424	87.19
594.634	86.19
594.843	90.19
595.053	90.19
595.262	80.19
595.472	96.19
595.681	83.19
595.89	88.19
596.1	83.19
596.309	82.19
596.518	94.19
596.727	87.19
596.937	94.19
597.146	91.19
597.355	89.19
597.564	90.19
597.774	89.19
597.983	88.19
598.192	84.19
598.401	94.19
598.61	87.19
598.819	79.19
599.028	81.19
599.237	90.19
599.446	88.19
599.655	105.19
599.864	95.19
600.073	87.19
600.282	83.19
600.491	75.19
600.7	94.19
600.909	80.19
601.118	92.19
601.327	83.19
601.536	105.19
601.745	95.19
601.953	100.19
602.162	90.19
602.371	86.19
602.58	88.19
602.789	89.19
602.997	82.19
603.206	84.19
603.415	105.19
603.623	88.19
603.832	87.19
604.041	90.19
604.249	97.19
604.458	95.19
604.666	82.19
604.875	99.19
605.084	95.19
605.292	91.19
605.501	92.19
605.709	95.19
605.918	95.19
606.126	82.19
606.334	101.19
606.543	78.19
606.751	95.19
606.96	93.19
607.168	95.19
607.376	92.19
607.585	100.19
607.793	89.19
608.001	91.19
608.21	100.19
608.418	99.19
608.626	94.19
608.834	84.19
609.043	88.19
609.251	94.19
609.459	89.19
609.667	97.19
609.875	86.19
610.083	91.19
610.291	79.19
610.499	91.19
610.707	88.19
610.916	84.19
611.124	80.19
611.332	98.19
611.54	95.19
611.748	95.19
611.955	81.19
612.163	86.19
612.371	83.19
612.579	89.19
612.787	91.19
612.995	85.19
613.203	87.19
613.411	100.19
613.618	83.19
613.826	94.19
614.034	94.19
614.242	90.19
614.449	80.19
614.657	88.19
614.865	87.19
615.072	88.19
615.28	96.19
615.488	106.19
615.695	98.19
615.903	77.19
616.111	75.19
616.318	90.19
616.526	90.19
616.733	88.19
616.941	74.19
617.148	87.19
617.356	100.19
617.563	103.19
617.771	90.19
617.978	89.19
618.185	81.19
618.393	93.19
618.6	91.19
618.807	91.19
619.015	101.19
619.222	88.19
619.429	89.19
619.637	100.19
619.844	89.19
620.051	101.19
620.258	90.19
620.466	84.19
620.673	95.19
620.88	85.19
621.087	98.19
621.294	91.19
621.501	90.19
621.708	100.19
621.915	91.19
622.122	102.19
622.329	86.19
622.536	83.19
622.743	92.19
622.95	94.19
623.157	100.19
623.364	94.19
623.571	97.19
623.778	97.19
623.985	95.19
624.192	102.19
624.399	82.19
624.606	98.19
624.812	107.19
625.019	94.19
625.226	93.19
625.433	96.19
625.639	92.19
625.846	101.19
626.053	89.19
626.259	82.19
626.466	99.19
626.673	77.19
626.879	104.19
627.086	96.19
627.293	95.19
627.499	86.19
627.706	94.19
627.912	88.19
628.119	93.19
628.325	89.19
628.532	93.19
628.738	80.19
628.945	67.19
629.151	76.19
629.357	91.19
629.564	93.19
629.77	78.19
629.976	87.19
630.183	76.19
630.389	92.19
630.595	75.19
630.802	87.19
631.008	89.19
631.214	80.19
631.42	88.19
631.627	97.19
631.833	86.19
632.039	98.19
632.245	99.19
632.451	82.19
632.657	84.19
632.863	81.19
633.069	76.19
633.275	102.19
633.481	83.19
633.688	93.19
633.893	88.19
634.099	95.19
634.305	91.19
634.511	74.19
634.717	104.19
634.923	93.19
635.129	84.19
635.335	97.19
635.541	86.19
635.747	80.19
635.952	94.19
636.158	79.19
636.364	90.19
636.57	90.19
636.775	79.19
636.981	84.19
637.187	101.19
637.392	90.19
637.598	90.19
637.804	102.19
638.009	87.19
638.215	91.19
638.421	94.19
638.626	92.19
638.832	98.19
639.037	102.19
639.243	78.19
639.448	94.19
639.654	83.19
639.859	92.19
640.065	88.19
640.27	85.19
640.475	90.19
640.681	91.19
640.886	102.19
641.091	76.19
641.297	90.19
641.502	98.19
641.707	87.19
641.913	91.19
642.118	95.19
642.323	92.19
642.528	98.19
642.733	82.19
642.939	94.19
643.144	90.19
643.349	104.19
643.554	105.19
643.759	86.19
643.964	80.19
644.169	87.19
644.374	87.19
644.579	90.19
644.784	91.19
644.989	94.19
645.194	87.19
645.399	88.19
645.604	78.19
645.809	80.19
646.014	89.19
646.219	82.19
646.423	82.19
646.628	84.19
646.833	95.19
647.038	78.19
647.243	80.19
647.447	89.19
647.652	79.19
647.857	73.19
648.062	86.19
648.266	86.19
648.471	94.19
648.676	88.19
648.88	73.19
649.085	82.19
649.289	77.19
649.494	84.19
649.698	80.19
649.903	88.19
650.107	100.19
650.312	85.19
650.516	93.19
650.721	91.19
650.925	86.19
651.13	84.19
651.334	86.19
651.539	91.19
651.743	76.19
651.947	81.19
652.152	87.19
652.356	86.19
652.56	79.19
652.764	80.19
652.969	83.19
653.173	94.19
653.377	68.19
653.581	82.19
653.785	76.19
653.99	74.19
654.194	83.19
654.398	82.19
654.602	93.19
654.806	86.19
655.01	96.19
655.214	93.19
655.418	101.19
655.622	83.19
655.826	84.19
656.03	82.19
656.234	85.19
656.438	86.19
656.642	94.19
656.846	90.19
657.049	80.19
657.253	92.19
657.457	86.19
657.661	87.19
657.865	91.19
658.068	83.19
658.272	81.19
658.476	91.19
658.68	95.19
658.883	83.19
659.087	82.19
659.291	72.19
659.494	84.19
659.698	90.19
659.901	88.19
660.105	89.19
660.309	91.19
660.512	85.19
660.716	74.19
660.919	87.19
661.123	89.19
661.326	97.19
661.53	76.19
661.733	66.19
661.936	91.19
662.14	88.19
662.343	77.19
662.546	90.19
662.75	67.19
662.953	81.19
663.156	88.19
663.36	79.19
663.563	90.19
663.766	95.19
663.969	77.19
664.173	81.19
664.376	81.19
664.579	79.19
664.782	83.19
664.985	81.19
665.188	68.19
665.391	81.19
665.594	84.19
665.797	89.19
666	76.19
666.203	67.19
666.406	88.19
666.609	83.19
666.812	87.19
667.015	82.19
667.218	77.19
667.421	65.19
667.624	81.19
667.827	89.19
668.03	82.19
668.232	82.19
668.435	71.19
668.638	84.19
668.841	91.19
669.043	75.19
669.246	75.19
669.449	81.19
669.651	85.19
669.854	84.19
670.057	89.19
670.259	90.19
670.462	83.19
670.665	75.19
670.867	89.19
671.07	87.19
671.272	98.19
671.475	84.19
671.677	75.19
671.88	76.19
672.082	75.19
672.284	78.19
672.487	84.19
672.689	77.19
672.892	81.19
