Data from 1960PennyLincolnUp.LampE5.5.200Scan.07172019.P1.ChangedAngle_HRD10591_13-15-33-821.txt Node
Date: Thu Jul 18 13:15:33 EDT 2019
User: cochatt
Spectrometer: HR+D1059
Trigger mode: 1
Integration Time (sec): 1.000000E-1
Scans to average: 1
Electric dark correction enabled: true
Nonlinearity correction enabled: false
Boxcar width: 0
XAxis mode: Wavelengths
Number of Pixels in Spectrum: 2048
>>>>>Begin Spectral Data<<<<<
223.165	-26.75
223.4	-26.75
223.635	-26.75
223.869	-11.75
224.104	-14.75
224.338	-5.75
224.573	-17.75
224.808	-23.75
225.042	-11.75
225.277	-4.75
225.511	0.25
225.746	6.25
225.98	16.25
226.215	-6.75
226.449	17.25
226.683	15.25
226.918	30.25
227.152	38.25
227.387	31.25
227.621	29.25
227.856	48.25
228.09	41.25
228.324	64.25
228.559	50.25
228.793	49.25
229.027	79.25
229.262	95.25
229.496	111.25
229.73	111.25
229.964	126.25
230.199	128.25
230.433	112.25
230.667	91.25
230.901	107.25
231.136	114.25
231.37	104.25
231.604	111.25
231.838	112.25
232.072	105.25
232.306	120.25
232.541	119.25
232.775	96.25
233.009	91.25
233.243	111.25
233.477	110.25
233.711	110.25
233.945	107.25
234.179	125.25
234.413	103.25
234.647	113.25
234.881	119.25
235.115	112.25
235.349	116.25
235.583	121.25
235.817	118.25
236.051	105.25
236.285	113.25
236.519	119.25
236.753	112.25
236.987	139.25
237.221	159.25
237.455	177.25
237.689	151.25
237.922	113.25
238.156	121.25
238.39	114.25
238.624	119.25
238.858	120.25
239.091	113.25
239.325	103.25
239.559	123.25
239.793	108.25
240.027	121.25
240.26	122.25
240.494	140.25
240.728	124.25
240.961	137.25
241.195	119.25
241.429	135.25
241.662	128.25
241.896	122.25
242.13	136.25
242.363	142.25
242.597	113.25
242.83	126.25
243.064	122.25
243.298	114.25
243.531	134.25
243.765	125.25
243.998	115.25
244.232	136.25
244.465	132.25
244.699	149.25
244.932	139.25
245.166	137.25
245.399	137.25
245.633	152.25
245.866	122.25
246.099	137.25
246.333	135.25
246.566	126.25
246.8	144.25
247.033	154.25
247.266	143.25
247.5	147.25
247.733	140.25
247.966	151.25
248.2	170.25
248.433	162.25
248.666	150.25
248.899	167.25
249.133	167.25
249.366	168.25
249.599	189.25
249.832	169.25
250.066	179.25
250.299	179.25
250.532	173.25
250.765	182.25
250.998	210.25
251.231	195.25
251.465	177.25
251.698	189.25
251.931	178.25
252.164	188.25
252.397	170.25
252.63	156.25
252.863	176.25
253.096	190.25
253.329	203.25
253.562	208.25
253.795	198.25
254.028	185.25
254.261	207.25
254.494	205.25
254.727	205.25
254.96	231.25
255.193	221.25
255.426	217.25
255.659	211.25
255.892	209.25
256.124	212.25
256.357	203.25
256.59	214.25
256.823	200.25
257.056	203.25
257.289	190.25
257.521	202.25
257.754	199.25
257.987	186.25
258.22	184.25
258.452	189.25
258.685	208.25
258.918	193.25
259.151	215.25
259.383	208.25
259.616	204.25
259.849	208.25
260.081	219.25
260.314	229.25
260.547	221.25
260.779	225.25
261.012	223.25
261.244	204.25
261.477	215.25
261.71	214.25
261.942	209.25
262.175	207.25
262.407	218.25
262.64	208.25
262.872	192.25
263.105	198.25
263.337	208.25
263.57	210.25
263.802	203.25
264.035	196.25
264.267	219.25
264.499	206.25
264.732	221.25
264.964	222.25
265.197	222.25
265.429	215.25
265.661	217.25
265.894	213.25
266.126	222.25
266.358	221.25
266.591	207.25
266.823	231.25
267.055	211.25
267.287	217.25
267.52	220.25
267.752	207.25
267.984	226.25
268.216	218.25
268.448	225.25
268.681	228.25
268.913	217.25
269.145	241.25
269.377	245.25
269.609	235.25
269.841	236.25
270.073	248.25
270.306	274.25
270.538	272.25
270.77	285.25
271.002	288.25
271.234	278.25
271.466	271.25
271.698	273.25
271.93	267.25
272.162	267.25
272.394	274.25
272.626	280.25
272.858	272.25
273.09	253.25
273.322	264.25
273.553	233.25
273.785	252.25
274.017	262.25
274.249	255.25
274.481	263.25
274.713	254.25
274.945	269.25
275.176	272.25
275.408	271.25
275.64	252.25
275.872	259.25
276.104	258.25
276.335	244.25
276.567	259.25
276.799	272.25
277.031	281.25
277.262	279.25
277.494	296.25
277.726	267.25
277.957	265.25
278.189	274.25
278.421	257.25
278.652	281.25
278.884	257.25
279.115	260.25
279.347	263.25
279.579	251.25
279.81	263.25
280.042	254.25
280.273	273.25
280.505	276.25
280.736	273.25
280.968	272.25
281.199	279.25
281.431	256.25
281.662	275.25
281.894	275.25
282.125	293.25
282.356	285.25
282.588	278.25
282.819	264.25
283.051	261.25
283.282	254.25
283.513	275.25
283.745	257.25
283.976	272.25
284.207	253.25
284.439	280.25
284.67	282.25
284.901	295.25
285.132	280.25
285.364	270.25
285.595	266.25
285.826	275.25
286.057	263.25
286.288	287.25
286.52	284.25
286.751	272.25
286.982	274.25
287.213	271.25
287.444	275.25
287.675	289.25
287.906	284.25
288.138	276.25
288.369	289.25
288.6	289.25
288.831	270.25
289.062	294.25
289.293	283.25
289.524	280.25
289.755	273.25
289.986	268.25
290.217	274.25
290.448	288.25
290.679	287.25
290.91	279.25
291.141	278.25
291.371	288.25
291.602	299.25
291.833	275.25
292.064	296.25
292.295	284.25
292.526	293.25
292.757	293.25
292.987	297.25
293.218	277.25
293.449	284.25
293.68	300.25
293.91	284.25
294.141	293.25
294.372	296.25
294.603	289.25
294.833	275.25
295.064	291.25
295.295	291.25
295.525	294.25
295.756	307.25
295.987	307.25
296.217	308.25
296.448	333.25
296.679	294.25
296.909	307.25
297.14	303.25
297.37	313.25
297.601	297.25
297.831	301.25
298.062	307.25
298.292	300.25
298.523	291.25
298.753	319.25
298.984	295.25
299.214	294.25
299.445	303.25
299.675	312.25
299.905	306.25
300.136	306.25
300.366	296.25
300.597	312.25
300.827	315.25
301.057	332.25
301.288	326.25
301.518	321.25
301.748	313.25
301.979	315.25
302.209	331.25
302.439	343.25
302.669	319.25
302.9	340.25
303.13	317.25
303.36	328.25
303.59	323.25
303.82	342.25
304.051	334.25
304.281	315.25
304.511	315.25
304.741	327.25
304.971	316.25
305.201	300.25
305.431	347.25
305.661	310.25
305.891	336.25
306.121	341.25
306.352	341.25
306.582	316.25
306.812	315.25
307.042	341.25
307.272	320.25
307.502	328.25
307.731	317.25
307.961	329.25
308.191	334.25
308.421	354.25
308.651	329.25
308.881	359.25
309.111	337.25
309.341	326.25
309.571	343.25
309.8	355.25
310.03	339.25
310.26	355.25
310.49	355.25
310.72	346.25
310.949	365.25
311.179	380.25
311.409	384.25
311.639	351.25
311.868	375.25
312.098	340.25
312.328	376.25
312.557	373.25
312.787	372.25
313.017	396.25
313.246	374.25
313.476	365.25
313.706	353.25
313.935	356.25
314.165	365.25
314.394	387.25
314.624	367.25
314.853	370.25
315.083	381.25
315.312	392.25
315.542	347.25
315.771	359.25
316.001	355.25
316.23	350.25
316.46	371.25
316.689	361.25
316.919	385.25
317.148	373.25
317.377	380.25
317.607	367.25
317.836	376.25
318.065	367.25
318.295	348.25
318.524	373.25
318.753	369.25
318.983	372.25
319.212	359.25
319.441	361.25
319.67	367.25
319.9	359.25
320.129	364.25
320.358	361.25
320.587	383.25
320.816	372.25
321.046	395.25
321.275	366.25
321.504	399.25
321.733	377.25
321.962	389.25
322.191	385.25
322.42	399.25
322.649	404.25
322.878	415.25
323.108	443.25
323.337	431.25
323.566	436.25
323.795	472.25
324.024	506.25
324.253	591.25
324.482	795.25
324.71	1150.25
324.939	1531.25
325.168	1282.25
325.397	715.25
325.626	549.25
325.855	487.25
326.084	451.25
326.313	465.25
326.542	465.25
326.77	489.25
326.999	551.25
327.228	719.25
327.457	1015.25
327.686	1158.25
327.914	817.25
328.143	574.25
328.372	536.25
328.6	501.25
328.829	479.25
329.058	495.25
329.287	489.25
329.515	464.25
329.744	442.25
329.972	457.25
330.201	507.25
330.43	501.25
330.658	504.25
330.887	509.25
331.115	485.25
331.344	470.25
331.572	446.25
331.801	439.25
332.03	448.25
332.258	426.25
332.486	423.25
332.715	436.25
332.943	441.25
333.172	425.25
333.4	432.25
333.629	454.25
333.857	451.25
334.085	455.25
334.314	472.25
334.542	477.25
334.771	475.25
334.999	465.25
335.227	448.25
335.455	439.25
335.684	416.25
335.912	437.25
336.14	417.25
336.369	439.25
336.597	430.25
336.825	439.25
337.053	412.25
337.281	422.25
337.51	419.25
337.738	425.25
337.966	408.25
338.194	423.25
338.422	421.25
338.65	423.25
338.878	411.25
339.106	409.25
339.334	408.25
339.562	413.25
339.79	415.25
340.018	415.25
340.246	413.25
340.474	385.25
340.702	411.25
340.93	402.25
341.158	398.25
341.386	409.25
341.614	417.25
341.842	422.25
342.07	404.25
342.298	402.25
342.526	402.25
342.754	381.25
342.981	403.25
343.209	401.25
343.437	414.25
343.665	407.25
343.893	406.25
344.12	426.25
344.348	427.25
344.576	427.25
344.804	424.25
345.031	419.25
345.259	421.25
345.487	406.25
345.714	399.25
345.942	381.25
346.17	379.25
346.397	391.25
346.625	367.25
346.853	387.25
347.08	375.25
347.308	368.25
347.535	380.25
347.763	364.25
347.99	383.25
348.218	394.25
348.445	384.25
348.673	364.25
348.9	409.25
349.128	397.25
349.355	375.25
349.583	376.25
349.81	364.25
350.037	386.25
350.265	375.25
350.492	378.25
350.72	384.25
350.947	406.25
351.174	365.25
351.402	401.25
351.629	393.25
351.856	408.25
352.083	390.25
352.311	381.25
352.538	386.25
352.765	375.25
352.992	384.25
353.22	376.25
353.447	369.25
353.674	352.25
353.901	369.25
354.128	380.25
354.355	338.25
354.583	357.25
354.81	379.25
355.037	366.25
355.264	351.25
355.491	378.25
355.718	373.25
355.945	371.25
356.172	355.25
356.399	357.25
356.626	351.25
356.853	362.25
357.08	359.25
357.307	349.25
357.534	369.25
357.761	379.25
357.988	365.25
358.215	349.25
358.441	344.25
358.668	352.25
358.895	378.25
359.122	377.25
359.349	365.25
359.576	372.25
359.802	389.25
360.029	398.25
360.256	413.25
360.483	395.25
360.709	384.25
360.936	365.25
361.163	356.25
361.39	374.25
361.616	368.25
361.843	391.25
362.07	387.25
362.296	379.25
362.523	381.25
362.749	383.25
362.976	367.25
363.203	368.25
363.429	371.25
363.656	369.25
363.882	357.25
364.109	355.25
364.335	365.25
364.562	357.25
364.788	365.25
365.015	365.25
365.241	341.25
365.468	371.25
365.694	371.25
365.92	368.25
366.147	363.25
366.373	364.25
366.599	359.25
366.826	356.25
367.052	361.25
367.278	364.25
367.505	366.25
367.731	360.25
367.957	367.25
368.184	355.25
368.41	372.25
368.636	364.25
368.862	357.25
369.089	346.25
369.315	356.25
369.541	367.25
369.767	361.25
369.993	374.25
370.219	363.25
370.445	342.25
370.672	355.25
370.898	356.25
371.124	359.25
371.35	350.25
371.576	346.25
371.802	374.25
372.028	351.25
372.254	365.25
372.48	363.25
372.706	342.25
372.932	379.25
373.158	358.25
373.384	359.25
373.61	381.25
373.835	359.25
374.061	369.25
374.287	373.25
374.513	360.25
374.739	370.25
374.965	367.25
375.191	373.25
375.416	356.25
375.642	380.25
375.868	372.25
376.094	356.25
376.319	370.25
376.545	355.25
376.771	342.25
376.997	349.25
377.222	322.25
377.448	347.25
377.674	343.25
377.899	352.25
378.125	348.25
378.35	348.25
378.576	338.25
378.802	356.25
379.027	339.25
379.253	353.25
379.478	350.25
379.704	356.25
379.929	349.25
380.155	357.25
380.38	360.25
380.606	350.25
380.831	335.25
381.057	361.25
381.282	355.25
381.507	355.25
381.733	342.25
381.958	345.25
382.184	352.25
382.409	364.25
382.634	346.25
382.86	369.25
383.085	373.25
383.31	365.25
383.535	366.25
383.761	365.25
383.986	371.25
384.211	370.25
384.436	388.25
384.662	352.25
384.887	367.25
385.112	365.25
385.337	374.25
385.562	378.25
385.787	383.25
386.013	375.25
386.238	399.25
386.463	391.25
386.688	381.25
386.913	365.25
387.138	363.25
387.363	382.25
387.588	382.25
387.813	365.25
388.038	377.25
388.263	376.25
388.488	377.25
388.713	388.25
388.938	393.25
389.163	376.25
389.387	368.25
389.612	377.25
389.837	384.25
390.062	374.25
390.287	395.25
390.512	381.25
390.736	386.25
390.961	383.25
391.186	382.25
391.411	371.25
391.636	385.25
391.86	379.25
392.085	385.25
392.31	389.25
392.534	368.25
392.759	383.25
392.984	393.25
393.208	405.25
393.433	382.25
393.658	398.25
393.882	403.25
394.107	384.25
394.331	372.25
394.556	372.25
394.78	392.25
395.005	361.25
395.229	389.25
395.454	388.25
395.678	384.25
395.903	386.25
396.127	419.25
396.352	404.25
396.576	405.25
396.801	399.25
397.025	379.25
397.249	386.25
397.474	393.25
397.698	403.25
397.922	408.25
398.147	417.25
398.371	424.25
398.595	410.25
398.82	447.25
399.044	437.25
399.268	431.25
399.492	483.25
399.717	496.25
399.941	513.25
400.165	509.25
400.389	499.25
400.613	459.25
400.837	447.25
401.062	436.25
401.286	448.25
401.51	441.25
401.734	425.25
401.958	414.25
402.182	423.25
402.406	435.25
402.63	413.25
402.854	438.25
403.078	435.25
403.302	442.25
403.526	444.25
403.75	456.25
403.974	446.25
404.198	449.25
404.422	446.25
404.645	434.25
404.869	448.25
405.093	461.25
405.317	485.25
405.541	516.25
405.765	472.25
405.988	468.25
406.212	476.25
406.436	467.25
406.66	462.25
406.883	457.25
407.107	507.25
407.331	511.25
407.555	554.25
407.778	563.25
408.002	496.25
408.226	477.25
408.449	481.25
408.673	456.25
408.896	484.25
409.12	523.25
409.344	486.25
409.567	459.25
409.791	429.25
410.014	437.25
410.238	435.25
410.461	433.25
410.685	458.25
410.908	455.25
411.132	484.25
411.355	494.25
411.578	468.25
411.802	437.25
412.025	434.25
412.249	441.25
412.472	459.25
412.695	486.25
412.919	483.25
413.142	440.25
413.365	435.25
413.589	419.25
413.812	414.25
414.035	397.25
414.258	401.25
414.482	412.25
414.705	430.25
414.928	411.25
415.151	424.25
415.374	413.25
415.597	395.25
415.821	427.25
416.044	412.25
416.267	415.25
416.49	396.25
416.713	405.25
416.936	404.25
417.159	394.25
417.382	412.25
417.605	414.25
417.828	431.25
418.051	436.25
418.274	407.25
418.497	384.25
418.72	422.25
418.943	399.25
419.166	407.25
419.389	426.25
419.611	427.25
419.834	432.25
420.057	416.25
420.28	412.25
420.503	409.25
420.726	428.25
420.948	425.25
421.171	454.25
421.394	470.25
421.617	436.25
421.839	421.25
422.062	431.25
422.285	425.25
422.507	480.25
422.73	511.25
422.953	498.25
423.175	436.25
423.398	442.25
423.621	437.25
423.843	445.25
424.066	450.25
424.288	441.25
424.511	456.25
424.733	511.25
424.956	557.25
425.178	526.25
425.401	521.25
425.623	540.25
425.846	462.25
426.068	455.25
426.291	446.25
426.513	419.25
426.735	445.25
426.958	464.25
427.18	525.25
427.402	616.25
427.625	659.25
427.847	587.25
428.069	513.25
428.292	462.25
428.514	442.25
428.736	419.25
428.958	414.25
429.181	429.25
429.403	406.25
429.625	417.25
429.847	412.25
430.069	472.25
430.292	460.25
430.514	436.25
430.736	399.25
430.958	411.25
431.18	392.25
431.402	387.25
431.624	380.25
431.846	384.25
432.068	394.25
432.29	373.25
432.512	380.25
432.734	382.25
432.956	397.25
433.178	408.25
433.4	406.25
433.622	388.25
433.844	411.25
434.066	391.25
434.287	407.25
434.509	396.25
434.731	385.25
434.953	407.25
435.175	407.25
435.397	429.25
435.618	457.25
435.84	470.25
436.062	548.25
436.284	576.25
436.505	505.25
436.727	431.25
436.949	411.25
437.17	416.25
437.392	400.25
437.614	412.25
437.835	458.25
438.057	507.25
438.278	547.25
438.5	557.25
438.721	592.25
438.943	604.25
439.165	494.25
439.386	452.25
439.608	443.25
439.829	435.25
440.05	450.25
440.272	492.25
440.493	470.25
440.715	421.25
440.936	404.25
441.158	403.25
441.379	403.25
441.6	404.25
441.822	428.25
442.043	461.25
442.264	516.25
442.486	544.25
442.707	483.25
442.928	441.25
443.149	447.25
443.371	457.25
443.592	479.25
443.813	553.25
444.034	592.25
444.255	516.25
444.476	461.25
444.698	449.25
444.919	439.25
445.14	511.25
445.361	484.25
445.582	449.25
445.803	513.25
446.024	561.25
446.245	580.25
446.466	540.25
446.687	465.25
446.908	431.25
447.129	416.25
447.35	413.25
447.571	400.25
447.792	390.25
448.013	408.25
448.234	421.25
448.455	444.25
448.675	519.25
448.896	617.25
449.117	546.25
449.338	502.25
449.559	560.25
449.779	636.25
450	498.25
450.221	422.25
450.442	404.25
450.662	393.25
450.883	397.25
451.104	407.25
451.324	376.25
451.545	393.25
451.766	369.25
451.986	363.25
452.207	379.25
452.428	381.25
452.648	372.25
452.869	375.25
453.089	367.25
453.31	381.25
453.53	371.25
453.751	358.25
453.971	375.25
454.192	391.25
454.412	357.25
454.633	359.25
454.853	349.25
455.073	373.25
455.294	392.25
455.514	429.25
455.734	401.25
455.955	373.25
456.175	363.25
456.395	352.25
456.616	346.25
456.836	341.25
457.056	341.25
457.276	353.25
457.497	339.25
457.717	338.25
457.937	364.25
458.157	353.25
458.377	365.25
458.598	371.25
458.818	399.25
459.038	464.25
459.258	456.25
459.478	421.25
459.698	385.25
459.918	382.25
460.138	393.25
460.358	396.25
460.578	393.25
460.798	389.25
461.018	400.25
461.238	403.25
461.458	385.25
461.678	389.25
461.898	374.25
462.118	389.25
462.338	426.25
462.558	409.25
462.777	429.25
462.997	416.25
463.217	431.25
463.437	437.25
463.657	415.25
463.876	413.25
464.096	446.25
464.316	402.25
464.536	428.25
464.755	429.25
464.975	427.25
465.195	452.25
465.414	469.25
465.634	417.25
465.854	396.25
466.073	409.25
466.293	378.25
466.512	392.25
466.732	357.25
466.951	380.25
467.171	369.25
467.391	391.25
467.61	376.25
467.829	374.25
468.049	358.25
468.268	372.25
468.488	367.25
468.707	381.25
468.927	386.25
469.146	375.25
469.365	405.25
469.585	377.25
469.804	369.25
470.023	381.25
470.243	375.25
470.462	382.25
470.681	395.25
470.901	377.25
471.12	382.25
471.339	371.25
471.558	372.25
471.777	382.25
471.997	391.25
472.216	378.25
472.435	404.25
472.654	369.25
472.873	383.25
473.092	373.25
473.311	371.25
473.53	373.25
473.749	368.25
473.968	424.25
474.187	477.25
474.406	499.25
474.625	423.25
474.844	390.25
475.063	379.25
475.282	404.25
475.501	399.25
475.72	399.25
475.939	401.25
476.158	395.25
476.377	398.25
476.596	389.25
476.814	402.25
477.033	419.25
477.252	421.25
477.471	396.25
477.69	416.25
477.908	403.25
478.127	408.25
478.346	409.25
478.564	413.25
478.783	421.25
479.002	440.25
479.22	415.25
479.439	433.25
479.658	447.25
479.876	439.25
480.095	465.25
480.313	457.25
480.532	451.25
480.751	443.25
480.969	472.25
481.188	513.25
481.406	507.25
481.624	466.25
481.843	447.25
482.061	459.25
482.28	442.25
482.498	445.25
482.717	429.25
482.935	452.25
483.153	403.25
483.372	439.25
483.59	449.25
483.808	443.25
484.027	429.25
484.245	442.25
484.463	421.25
484.681	440.25
484.9	437.25
485.118	460.25
485.336	431.25
485.554	448.25
485.772	429.25
485.99	445.25
486.209	450.25
486.427	455.25
486.645	451.25
486.863	476.25
487.081	467.25
487.299	468.25
487.517	449.25
487.735	450.25
487.953	448.25
488.171	455.25
488.389	465.25
488.607	449.25
488.825	471.25
489.043	460.25
489.261	487.25
489.479	475.25
489.696	465.25
489.914	480.25
490.132	457.25
490.35	479.25
490.568	469.25
490.786	488.25
491.003	463.25
491.221	521.25
491.439	512.25
491.657	504.25
491.874	495.25
492.092	508.25
492.31	531.25
492.527	517.25
492.745	508.25
492.963	514.25
493.18	507.25
493.398	528.25
493.615	544.25
493.833	521.25
494.05	517.25
494.268	532.25
494.485	533.25
494.703	532.25
494.92	531.25
495.138	552.25
495.355	535.25
495.573	544.25
495.79	524.25
496.008	533.25
496.225	533.25
496.442	545.25
496.66	549.25
496.877	517.25
497.094	549.25
497.312	544.25
497.529	545.25
497.746	577.25
497.963	555.25
498.181	581.25
498.398	597.25
498.615	641.25
498.832	633.25
499.049	627.25
499.267	632.25
499.484	672.25
499.701	682.25
499.918	693.25
500.135	724.25
500.352	754.25
500.569	764.25
500.786	765.25
501.003	762.25
501.22	733.25
501.437	718.25
501.654	702.25
501.871	699.25
502.088	661.25
502.305	659.25
502.522	639.25
502.739	595.25
502.956	600.25
503.172	569.25
503.389	579.25
503.606	592.25
503.823	553.25
504.04	560.25
504.256	548.25
504.473	543.25
504.69	551.25
504.907	543.25
505.123	542.25
505.34	544.25
505.557	529.25
505.773	526.25
505.99	524.25
506.207	515.25
506.423	516.25
506.64	491.25
506.856	511.25
507.073	479.25
507.289	496.25
507.506	511.25
507.722	501.25
507.939	511.25
508.155	484.25
508.372	481.25
508.588	507.25
508.805	479.25
509.021	487.25
509.238	476.25
509.454	484.25
509.67	480.25
509.887	474.25
510.103	478.25
510.319	484.25
510.536	562.25
510.752	798.25
510.968	643.25
511.184	487.25
511.401	483.25
511.617	479.25
511.833	460.25
512.049	465.25
512.265	450.25
512.481	436.25
512.698	462.25
512.914	471.25
513.13	460.25
513.346	467.25
513.562	448.25
513.778	438.25
513.994	455.25
514.21	463.25
514.426	467.25
514.642	480.25
514.858	523.25
515.074	525.25
515.29	621.25
515.506	802.25
515.721	677.25
515.937	519.25
516.153	488.25
516.369	501.25
516.585	478.25
516.801	493.25
517.016	463.25
517.232	483.25
517.448	462.25
517.664	476.25
517.879	484.25
518.095	487.25
518.311	485.25
518.527	512.25
518.742	473.25
518.958	460.25
519.173	463.25
519.389	450.25
519.605	472.25
519.82	461.25
520.036	471.25
520.251	471.25
520.467	501.25
520.682	478.25
520.898	460.25
521.113	503.25
521.329	513.25
521.544	537.25
521.76	648.25
521.975	1017.25
522.19	933.25
522.406	602.25
522.621	501.25
522.836	464.25
523.052	429.25
523.267	416.25
523.482	411.25
523.698	416.25
523.913	408.25
524.128	416.25
524.343	408.25
524.559	389.25
524.774	392.25
524.989	401.25
525.204	417.25
525.419	419.25
525.634	407.25
525.849	374.25
526.064	367.25
526.28	391.25
526.495	389.25
526.71	394.25
526.925	391.25
527.14	406.25
527.355	397.25
527.57	400.25
527.785	375.25
527.999	377.25
528.214	376.25
528.429	367.25
528.644	389.25
528.859	386.25
529.074	409.25
529.289	407.25
529.503	434.25
529.718	416.25
529.933	407.25
530.148	394.25
530.363	385.25
530.577	388.25
530.792	378.25
531.007	386.25
531.221	385.25
531.436	361.25
531.651	374.25
531.865	367.25
532.08	383.25
532.295	364.25
532.509	381.25
532.724	341.25
532.938	367.25
533.153	385.25
533.367	384.25
533.582	382.25
533.796	365.25
534.011	363.25
534.225	374.25
534.44	376.25
534.654	335.25
534.868	359.25
535.083	367.25
535.297	368.25
535.511	378.25
535.726	376.25
535.94	360.25
536.154	361.25
536.369	351.25
536.583	368.25
536.797	364.25
537.011	345.25
537.225	365.25
537.44	375.25
537.654	355.25
537.868	351.25
538.082	352.25
538.296	359.25
538.51	366.25
538.724	353.25
538.938	351.25
539.153	366.25
539.367	373.25
539.581	344.25
539.795	363.25
540.009	364.25
540.222	348.25
540.436	359.25
540.65	361.25
540.864	356.25
541.078	350.25
541.292	383.25
541.506	389.25
541.72	346.25
541.934	344.25
542.147	344.25
542.361	367.25
542.575	339.25
542.789	366.25
543.002	365.25
543.216	346.25
543.43	344.25
543.644	371.25
543.857	345.25
544.071	367.25
544.285	371.25
544.498	363.25
544.712	341.25
544.925	351.25
545.139	363.25
545.352	361.25
545.566	359.25
545.779	329.25
545.993	331.25
546.206	349.25
546.42	352.25
546.633	339.25
546.847	331.25
547.06	347.25
547.274	349.25
547.487	352.25
547.7	344.25
547.914	350.25
548.127	356.25
548.34	337.25
548.554	357.25
548.767	336.25
548.98	337.25
549.193	337.25
549.407	345.25
549.62	367.25
549.833	347.25
550.046	345.25
550.259	329.25
550.473	347.25
550.686	332.25
550.899	363.25
551.112	345.25
551.325	339.25
551.538	359.25
551.751	348.25
551.964	329.25
552.177	343.25
552.39	329.25
552.603	354.25
552.816	335.25
553.029	343.25
553.242	332.25
553.455	359.25
553.667	345.25
553.88	349.25
554.093	340.25
554.306	335.25
554.519	328.25
554.732	337.25
554.944	343.25
555.157	327.25
555.37	321.25
555.583	335.25
555.795	319.25
556.008	313.25
556.221	319.25
556.433	311.25
556.646	300.25
556.859	337.25
557.071	307.25
557.284	311.25
557.496	319.25
557.709	319.25
557.921	314.25
558.134	311.25
558.346	302.25
558.559	314.25
558.771	307.25
558.984	313.25
559.196	298.25
559.409	315.25
559.621	299.25
559.833	309.25
560.046	291.25
560.258	300.25
560.47	316.25
560.683	279.25
560.895	305.25
561.107	297.25
561.32	301.25
561.532	301.25
561.744	288.25
561.956	309.25
562.168	304.25
562.381	313.25
562.593	298.25
562.805	289.25
563.017	319.25
563.229	320.25
563.441	332.25
563.653	312.25
563.865	312.25
564.077	308.25
564.289	311.25
564.501	307.25
564.713	327.25
564.925	325.25
565.137	334.25
565.349	328.25
565.561	340.25
565.773	331.25
565.985	353.25
566.197	363.25
566.408	364.25
566.62	389.25
566.832	362.25
567.044	360.25
567.255	364.25
567.467	374.25
567.679	378.25
567.891	400.25
568.102	384.25
568.314	355.25
568.526	364.25
568.737	350.25
568.949	348.25
569.161	317.25
569.372	340.25
569.584	321.25
569.795	307.25
570.007	324.25
570.218	323.25
570.43	313.25
570.641	297.25
570.853	321.25
571.064	315.25
571.276	286.25
571.487	262.25
571.698	300.25
571.91	289.25
572.121	278.25
572.333	287.25
572.544	276.25
572.755	271.25
572.966	281.25
573.178	267.25
573.389	281.25
573.6	293.25
573.811	278.25
574.023	265.25
574.234	285.25
574.445	264.25
574.656	249.25
574.867	277.25
575.078	272.25
575.289	266.25
575.501	256.25
575.712	261.25
575.923	271.25
576.134	259.25
576.345	253.25
576.556	259.25
576.767	257.25
576.978	274.25
577.188	256.25
577.399	259.25
577.61	268.25
577.821	252.25
578.032	256.25
578.243	279.25
578.454	395.25
578.665	329.25
578.875	263.25
579.086	248.25
579.297	252.25
579.508	265.25
579.718	252.25
579.929	243.25
580.14	216.25
580.35	251.25
580.561	258.25
580.772	256.25
580.982	245.25
581.193	252.25
581.403	243.25
581.614	260.25
581.825	227.25
582.035	236.25
582.246	231.25
582.456	250.25
582.667	259.25
582.877	254.25
583.087	239.25
583.298	246.25
583.508	254.25
583.719	261.25
583.929	247.25
584.139	240.25
584.35	234.25
584.56	249.25
584.77	238.25
584.981	224.25
585.191	232.25
585.401	250.25
585.611	245.25
585.821	251.25
586.032	239.25
586.242	229.25
586.452	235.25
586.662	227.25
586.872	221.25
587.082	230.25
587.292	243.25
587.502	224.25
587.713	233.25
587.923	231.25
588.133	246.25
588.343	251.25
588.553	224.25
588.762	233.25
588.972	259.25
589.182	281.25
589.392	277.25
589.602	248.25
589.812	273.25
590.022	263.25
590.232	245.25
590.441	242.25
590.651	245.25
590.861	205.25
591.071	233.25
591.281	232.25
591.49	236.25
591.7	231.25
591.91	223.25
592.119	243.25
592.329	228.25
592.539	236.25
592.748	236.25
592.958	236.25
593.167	256.25
593.377	231.25
593.587	246.25
593.796	247.25
594.006	256.25
594.215	236.25
594.424	248.25
594.634	245.25
594.843	253.25
595.053	238.25
595.262	249.25
595.472	256.25
595.681	229.25
595.89	269.25
596.1	249.25
596.309	232.25
596.518	221.25
596.727	227.25
596.937	236.25
597.146	222.25
597.355	231.25
597.564	219.25
597.774	220.25
597.983	220.25
598.192	222.25
598.401	207.25
598.61	218.25
598.819	203.25
599.028	209.25
599.237	202.25
599.446	216.25
599.655	209.25
599.864	210.25
600.073	208.25
600.282	214.25
600.491	216.25
600.7	214.25
600.909	211.25
601.118	208.25
601.327	205.25
601.536	205.25
601.745	193.25
601.953	213.25
602.162	193.25
602.371	204.25
602.58	209.25
602.789	213.25
602.997	218.25
603.206	213.25
603.415	207.25
603.623	196.25
603.832	183.25
604.041	185.25
604.249	208.25
604.458	216.25
604.666	219.25
604.875	185.25
605.084	197.25
605.292	206.25
605.501	183.25
605.709	197.25
605.918	209.25
606.126	202.25
606.334	201.25
606.543	180.25
606.751	191.25
606.96	181.25
607.168	191.25
607.376	196.25
607.585	206.25
607.793	193.25
608.001	203.25
608.21	208.25
608.418	208.25
608.626	199.25
608.834	195.25
609.043	189.25
609.251	194.25
609.459	195.25
609.667	199.25
609.875	192.25
610.083	185.25
610.291	192.25
610.499	207.25
610.707	182.25
610.916	191.25
611.124	203.25
611.332	205.25
611.54	181.25
611.748	201.25
611.955	195.25
612.163	192.25
612.371	199.25
612.579	193.25
612.787	191.25
612.995	209.25
613.203	210.25
613.411	208.25
613.618	195.25
613.826	184.25
614.034	186.25
614.242	191.25
614.449	190.25
614.657	197.25
614.865	189.25
615.072	189.25
615.28	192.25
615.488	185.25
615.695	183.25
615.903	194.25
616.111	199.25
616.318	192.25
616.526	190.25
616.733	185.25
616.941	203.25
617.148	192.25
617.356	195.25
617.563	187.25
617.771	189.25
617.978	192.25
618.185	189.25
618.393	185.25
618.6	201.25
618.807	177.25
619.015	190.25
619.222	195.25
619.429	189.25
619.637	201.25
619.844	195.25
620.051	175.25
620.258	195.25
620.466	199.25
620.673	160.25
620.88	173.25
621.087	179.25
621.294	163.25
621.501	155.25
621.708	181.25
621.915	181.25
622.122	187.25
622.329	183.25
622.536	183.25
622.743	178.25
622.95	175.25
623.157	179.25
623.364	175.25
623.571	181.25
623.778	188.25
623.985	182.25
624.192	188.25
624.399	189.25
624.606	181.25
624.812	183.25
625.019	195.25
625.226	181.25
625.433	185.25
625.639	169.25
625.846	169.25
626.053	184.25
626.259	172.25
626.466	171.25
626.673	171.25
626.879	160.25
627.086	159.25
627.293	165.25
627.499	169.25
627.706	176.25
627.912	168.25
628.119	176.25
628.325	160.25
628.532	176.25
628.738	172.25
628.945	181.25
629.151	182.25
629.357	163.25
629.564	167.25
629.77	161.25
629.976	172.25
630.183	172.25
630.389	176.25
630.595	160.25
630.802	160.25
631.008	167.25
631.214	158.25
631.42	165.25
631.627	175.25
631.833	153.25
632.039	156.25
632.245	165.25
632.451	158.25
632.657	160.25
632.863	164.25
633.069	147.25
633.275	169.25
633.481	166.25
633.688	161.25
633.893	158.25
634.099	166.25
634.305	154.25
634.511	163.25
634.717	165.25
634.923	171.25
635.129	143.25
635.335	147.25
635.541	152.25
635.747	166.25
635.952	145.25
636.158	145.25
636.364	151.25
636.57	148.25
636.775	154.25
636.981	158.25
637.187	134.25
637.392	155.25
637.598	174.25
637.804	151.25
638.009	150.25
638.215	153.25
638.421	139.25
638.626	145.25
638.832	165.25
639.037	150.25
639.243	158.25
639.448	154.25
639.654	143.25
639.859	155.25
640.065	155.25
640.27	157.25
640.475	169.25
640.681	153.25
640.886	152.25
641.091	161.25
641.297	152.25
641.502	141.25
641.707	156.25
641.913	157.25
642.118	137.25
642.323	147.25
642.528	155.25
642.733	144.25
642.939	141.25
643.144	139.25
643.349	135.25
643.554	140.25
643.759	136.25
643.964	143.25
644.169	147.25
644.374	149.25
644.579	158.25
644.784	170.25
644.989	148.25
645.194	160.25
645.399	148.25
645.604	129.25
645.809	148.25
646.014	154.25
646.219	152.25
646.423	158.25
646.628	141.25
646.833	141.25
647.038	146.25
647.243	147.25
647.447	139.25
647.652	148.25
647.857	145.25
648.062	155.25
648.266	153.25
648.471	139.25
648.676	150.25
648.88	155.25
649.085	136.25
649.289	149.25
649.494	157.25
649.698	172.25
649.903	151.25
650.107	144.25
650.312	129.25
650.516	142.25
650.721	143.25
650.925	127.25
651.13	130.25
651.334	134.25
651.539	147.25
651.743	139.25
651.947	123.25
652.152	134.25
652.356	141.25
652.56	125.25
652.764	133.25
652.969	117.25
653.173	116.25
653.377	135.25
653.581	119.25
653.785	108.25
653.99	129.25
654.194	117.25
654.398	126.25
654.602	119.25
654.806	127.25
655.01	142.25
655.214	127.25
655.418	132.25
655.622	115.25
655.826	111.25
656.03	123.25
656.234	131.25
656.438	133.25
656.642	130.25
656.846	130.25
657.049	133.25
657.253	111.25
657.457	117.25
657.661	106.25
657.865	116.25
658.068	96.25
658.272	101.25
658.476	101.25
658.68	109.25
658.883	102.25
659.087	102.25
659.291	93.25
659.494	92.25
659.698	92.25
659.901	102.25
660.105	112.25
660.309	85.25
660.512	90.25
660.716	84.25
660.919	95.25
661.123	113.25
661.326	105.25
661.53	99.25
661.733	98.25
661.936	107.25
662.14	88.25
662.343	85.25
662.546	76.25
662.75	97.25
662.953	84.25
663.156	88.25
663.36	89.25
663.563	99.25
663.766	103.25
663.969	77.25
664.173	86.25
664.376	93.25
664.579	83.25
664.782	80.25
664.985	78.25
665.188	89.25
665.391	81.25
665.594	83.25
665.797	88.25
666	86.25
666.203	75.25
666.406	80.25
666.609	100.25
666.812	86.25
667.015	89.25
667.218	93.25
667.421	81.25
667.624	79.25
667.827	83.25
668.03	95.25
668.232	99.25
668.435	82.25
668.638	72.25
668.841	91.25
669.043	91.25
669.246	82.25
669.449	84.25
669.651	80.25
669.854	86.25
670.057	89.25
670.259	84.25
670.462	88.25
670.665	87.25
670.867	81.25
671.07	95.25
671.272	78.25
671.475	82.25
671.677	82.25
671.88	73.25
672.082	88.25
672.284	73.25
672.487	105.25
672.689	89.25
672.892	62.25
