Data from 1960PennyLincolnUp.LampE6.200Scan.07172019.P1_HRD10591_13-05-45-001.txt Node
Date: Thu Jul 18 13:05:45 EDT 2019
User: cochatt
Spectrometer: HR+D1059
Trigger mode: 1
Integration Time (sec): 1.000000E-1
Scans to average: 1
Electric dark correction enabled: true
Nonlinearity correction enabled: false
Boxcar width: 0
XAxis mode: Wavelengths
Number of Pixels in Spectrum: 2048
>>>>>Begin Spectral Data<<<<<
223.165	-22.44
223.4	-22.44
223.635	-22.44
223.869	-11.44
224.104	-5.44
224.338	-2.44
224.573	-10.44
224.808	-4.44
225.042	-10.44
225.277	-0.44
225.511	-0.44
225.746	-0.44
225.98	10.56
226.215	-0.44
226.449	18.56
226.683	12.56
226.918	19.56
227.152	7.56
227.387	26.56
227.621	39.56
227.856	43.56
228.09	40.56
228.324	46.56
228.559	62.56
228.793	75.56
229.027	91.56
229.262	87.56
229.496	91.56
229.73	110.56
229.964	129.56
230.199	122.56
230.433	103.56
230.667	112.56
230.901	99.56
231.136	104.56
231.37	106.56
231.604	114.56
231.838	115.56
232.072	110.56
232.306	104.56
232.541	115.56
232.775	109.56
233.009	129.56
233.243	118.56
233.477	118.56
233.711	126.56
233.945	129.56
234.179	115.56
234.413	127.56
234.647	110.56
234.881	107.56
235.115	109.56
235.349	115.56
235.583	117.56
235.817	121.56
236.051	114.56
236.285	134.56
236.519	114.56
236.753	129.56
236.987	133.56
237.221	150.56
237.455	174.56
237.689	151.56
237.922	122.56
238.156	122.56
238.39	126.56
238.624	108.56
238.858	131.56
239.091	124.56
239.325	124.56
239.559	122.56
239.793	129.56
240.027	127.56
240.26	123.56
240.494	143.56
240.728	133.56
240.961	128.56
241.195	131.56
241.429	128.56
241.662	123.56
241.896	141.56
242.13	133.56
242.363	137.56
242.597	139.56
242.83	144.56
243.064	135.56
243.298	131.56
243.531	131.56
243.765	144.56
243.998	129.56
244.232	144.56
244.465	152.56
244.699	132.56
244.932	129.56
245.166	131.56
245.399	123.56
245.633	130.56
245.866	148.56
246.099	131.56
246.333	153.56
246.566	150.56
246.8	140.56
247.033	145.56
247.266	153.56
247.5	138.56
247.733	162.56
247.966	165.56
248.2	142.56
248.433	149.56
248.666	163.56
248.899	177.56
249.133	185.56
249.366	194.56
249.599	182.56
249.832	175.56
250.066	148.56
250.299	161.56
250.532	186.56
250.765	189.56
250.998	199.56
251.231	189.56
251.465	184.56
251.698	167.56
251.931	174.56
252.164	173.56
252.397	165.56
252.63	176.56
252.863	181.56
253.096	195.56
253.329	213.56
253.562	194.56
253.795	187.56
254.028	185.56
254.261	192.56
254.494	215.56
254.727	217.56
254.96	231.56
255.193	224.56
255.426	197.56
255.659	208.56
255.892	195.56
256.124	222.56
256.357	216.56
256.59	207.56
256.823	184.56
257.056	194.56
257.289	193.56
257.521	208.56
257.754	179.56
257.987	190.56
258.22	179.56
258.452	183.56
258.685	195.56
258.918	184.56
259.151	204.56
259.383	191.56
259.616	198.56
259.849	207.56
260.081	197.56
260.314	216.56
260.547	239.56
260.779	198.56
261.012	220.56
261.244	194.56
261.477	203.56
261.71	190.56
261.942	210.56
262.175	216.56
262.407	195.56
262.64	206.56
262.872	208.56
263.105	201.56
263.337	209.56
263.57	189.56
263.802	193.56
264.035	195.56
264.267	195.56
264.499	191.56
264.732	201.56
264.964	210.56
265.197	215.56
265.429	206.56
265.661	202.56
265.894	203.56
266.126	188.56
266.358	206.56
266.591	221.56
266.823	208.56
267.055	227.56
267.287	216.56
267.52	221.56
267.752	210.56
267.984	235.56
268.216	230.56
268.448	214.56
268.681	232.56
268.913	239.56
269.145	242.56
269.377	256.56
269.609	243.56
269.841	241.56
270.073	253.56
270.306	250.56
270.538	278.56
270.77	288.56
271.002	267.56
271.234	264.56
271.466	274.56
271.698	292.56
271.93	264.56
272.162	271.56
272.394	272.56
272.626	259.56
272.858	248.56
273.09	246.56
273.322	263.56
273.553	254.56
273.785	238.56
274.017	256.56
274.249	241.56
274.481	257.56
274.713	240.56
274.945	263.56
275.176	241.56
275.408	262.56
275.64	249.56
275.872	261.56
276.104	251.56
276.335	239.56
276.567	256.56
276.799	256.56
277.031	289.56
277.262	288.56
277.494	289.56
277.726	264.56
277.957	265.56
278.189	273.56
278.421	267.56
278.652	260.56
278.884	264.56
279.115	264.56
279.347	264.56
279.579	270.56
279.81	270.56
280.042	257.56
280.273	253.56
280.505	278.56
280.736	267.56
280.968	268.56
281.199	263.56
281.431	274.56
281.662	266.56
281.894	274.56
282.125	265.56
282.356	281.56
282.588	289.56
282.819	275.56
283.051	257.56
283.282	286.56
283.513	276.56
283.745	281.56
283.976	282.56
284.207	291.56
284.439	289.56
284.67	282.56
284.901	271.56
285.132	281.56
285.364	280.56
285.595	279.56
285.826	267.56
286.057	280.56
286.288	281.56
286.52	295.56
286.751	281.56
286.982	282.56
287.213	275.56
287.444	287.56
287.675	278.56
287.906	316.56
288.138	295.56
288.369	291.56
288.6	305.56
288.831	320.56
289.062	312.56
289.293	293.56
289.524	306.56
289.755	302.56
289.986	315.56
290.217	302.56
290.448	294.56
290.679	295.56
290.91	294.56
291.141	296.56
291.371	301.56
291.602	293.56
291.833	291.56
292.064	282.56
292.295	295.56
292.526	278.56
292.757	331.56
292.987	300.56
293.218	295.56
293.449	314.56
293.68	314.56
293.91	283.56
294.141	293.56
294.372	304.56
294.603	320.56
294.833	315.56
295.064	303.56
295.295	280.56
295.525	286.56
295.756	320.56
295.987	314.56
296.217	325.56
296.448	314.56
296.679	315.56
296.909	303.56
297.14	310.56
297.37	313.56
297.601	314.56
297.831	322.56
298.062	323.56
298.292	328.56
298.523	336.56
298.753	331.56
298.984	314.56
299.214	312.56
299.445	335.56
299.675	312.56
299.905	338.56
300.136	327.56
300.366	319.56
300.597	363.56
300.827	349.56
301.057	338.56
301.288	354.56
301.518	351.56
301.748	327.56
301.979	350.56
302.209	354.56
302.439	336.56
302.669	349.56
302.9	330.56
303.13	341.56
303.36	343.56
303.59	352.56
303.82	345.56
304.051	349.56
304.281	347.56
304.511	357.56
304.741	344.56
304.971	361.56
305.201	368.56
305.431	345.56
305.661	344.56
305.891	345.56
306.121	338.56
306.352	319.56
306.582	339.56
306.812	342.56
307.042	345.56
307.272	344.56
307.502	336.56
307.731	343.56
307.961	350.56
308.191	341.56
308.421	351.56
308.651	357.56
308.881	352.56
309.111	359.56
309.341	340.56
309.571	342.56
309.8	346.56
310.03	350.56
310.26	379.56
310.49	365.56
310.72	373.56
310.949	355.56
311.179	377.56
311.409	352.56
311.639	345.56
311.868	389.56
312.098	367.56
312.328	374.56
312.557	374.56
312.787	389.56
313.017	393.56
313.246	379.56
313.476	376.56
313.706	358.56
313.935	393.56
314.165	389.56
314.394	393.56
314.624	386.56
314.853	401.56
315.083	374.56
315.312	370.56
315.542	384.56
315.771	365.56
316.001	357.56
316.23	390.56
316.46	389.56
316.689	376.56
316.919	394.56
317.148	382.56
317.377	403.56
317.607	382.56
317.836	383.56
318.065	377.56
318.295	375.56
318.524	373.56
318.753	371.56
318.983	381.56
319.212	372.56
319.441	367.56
319.67	387.56
319.9	373.56
320.129	349.56
320.358	374.56
320.587	386.56
320.816	399.56
321.046	374.56
321.275	373.56
321.504	398.56
321.733	383.56
321.962	395.56
322.191	387.56
322.42	398.56
322.649	400.56
322.878	419.56
323.108	392.56
323.337	415.56
323.566	439.56
323.795	448.56
324.024	474.56
324.253	560.56
324.482	695.56
324.71	1008.56
324.939	1367.56
325.168	1144.56
325.397	628.56
325.626	487.56
325.855	437.56
326.084	443.56
326.313	440.56
326.542	461.56
326.77	471.56
326.999	529.56
327.228	669.56
327.457	943.56
327.686	1059.56
327.914	731.56
328.143	536.56
328.372	516.56
328.6	507.56
328.829	490.56
329.058	493.56
329.287	501.56
329.515	481.56
329.744	460.56
329.972	463.56
330.201	467.56
330.43	500.56
330.658	509.56
330.887	525.56
331.115	520.56
331.344	464.56
331.572	482.56
331.801	460.56
332.03	450.56
332.258	479.56
332.486	450.56
332.715	459.56
332.943	473.56
333.172	493.56
333.4	491.56
333.629	494.56
333.857	514.56
334.085	517.56
334.314	531.56
334.542	549.56
334.771	541.56
334.999	524.56
335.227	503.56
335.455	494.56
335.684	510.56
335.912	481.56
336.14	477.56
336.369	467.56
336.597	501.56
336.825	463.56
337.053	465.56
337.281	456.56
337.51	466.56
337.738	452.56
337.966	449.56
338.194	442.56
338.422	481.56
338.65	459.56
338.878	450.56
339.106	432.56
339.334	435.56
339.562	450.56
339.79	438.56
340.018	426.56
340.246	435.56
340.474	439.56
340.702	441.56
340.93	417.56
341.158	395.56
341.386	413.56
341.614	440.56
341.842	437.56
342.07	425.56
342.298	441.56
342.526	442.56
342.754	417.56
342.981	423.56
343.209	425.56
343.437	423.56
343.665	447.56
343.893	485.56
344.12	485.56
344.348	487.56
344.576	463.56
344.804	459.56
345.031	453.56
345.259	457.56
345.487	460.56
345.714	423.56
345.942	413.56
346.17	425.56
346.397	424.56
346.625	416.56
346.853	394.56
347.08	417.56
347.308	433.56
347.535	407.56
347.763	424.56
347.99	409.56
348.218	449.56
348.445	426.56
348.673	425.56
348.9	417.56
349.128	407.56
349.355	400.56
349.583	395.56
349.81	403.56
350.037	406.56
350.265	378.56
350.492	407.56
350.72	430.56
350.947	403.56
351.174	418.56
351.402	431.56
351.629	413.56
351.856	435.56
352.083	405.56
352.311	413.56
352.538	433.56
352.765	415.56
352.992	420.56
353.22	408.56
353.447	394.56
353.674	411.56
353.901	417.56
354.128	400.56
354.355	403.56
354.583	408.56
354.81	410.56
355.037	397.56
355.264	405.56
355.491	403.56
355.718	382.56
355.945	398.56
356.172	415.56
356.399	398.56
356.626	401.56
356.853	417.56
357.08	403.56
357.307	381.56
357.534	399.56
357.761	401.56
357.988	400.56
358.215	413.56
358.441	402.56
358.668	389.56
358.895	398.56
359.122	400.56
359.349	396.56
359.576	410.56
359.802	403.56
360.029	437.56
360.256	449.56
360.483	413.56
360.709	395.56
360.936	399.56
361.163	396.56
361.39	419.56
361.616	409.56
361.843	400.56
362.07	431.56
362.296	421.56
362.523	399.56
362.749	412.56
362.976	399.56
363.203	420.56
363.429	415.56
363.656	405.56
363.882	409.56
364.109	392.56
364.335	390.56
364.562	398.56
364.788	398.56
365.015	407.56
365.241	378.56
365.468	398.56
365.694	397.56
365.92	410.56
366.147	407.56
366.373	418.56
366.599	400.56
366.826	381.56
367.052	402.56
367.278	403.56
367.505	403.56
367.731	426.56
367.957	396.56
368.184	415.56
368.41	415.56
368.636	423.56
368.862	403.56
369.089	400.56
369.315	405.56
369.541	410.56
369.767	406.56
369.993	404.56
370.219	431.56
370.445	405.56
370.672	421.56
370.898	405.56
371.124	415.56
371.35	428.56
371.576	428.56
371.802	402.56
372.028	406.56
372.254	427.56
372.48	424.56
372.706	428.56
372.932	435.56
373.158	422.56
373.384	425.56
373.61	434.56
373.835	425.56
374.061	404.56
374.287	429.56
374.513	433.56
374.739	455.56
374.965	456.56
375.191	450.56
375.416	452.56
375.642	457.56
375.868	437.56
376.094	435.56
376.319	417.56
376.545	427.56
376.771	442.56
376.997	432.56
377.222	410.56
377.448	434.56
377.674	413.56
377.899	422.56
378.125	437.56
378.35	410.56
378.576	397.56
378.802	415.56
379.027	409.56
379.253	427.56
379.478	420.56
379.704	429.56
379.929	407.56
380.155	413.56
380.38	415.56
380.606	430.56
380.831	400.56
381.057	434.56
381.282	414.56
381.507	422.56
381.733	415.56
381.958	443.56
382.184	438.56
382.409	424.56
382.634	454.56
382.86	436.56
383.085	442.56
383.31	447.56
383.535	451.56
383.761	429.56
383.986	447.56
384.211	455.56
384.436	450.56
384.662	482.56
384.887	446.56
385.112	479.56
385.337	500.56
385.562	479.56
385.787	470.56
386.013	511.56
386.238	485.56
386.463	493.56
386.688	478.56
386.913	467.56
387.138	480.56
387.363	477.56
387.588	452.56
387.813	467.56
388.038	469.56
388.263	489.56
388.488	494.56
388.713	469.56
388.938	481.56
389.163	490.56
389.387	469.56
389.612	468.56
389.837	469.56
390.062	469.56
390.287	477.56
390.512	469.56
390.736	475.56
390.961	474.56
391.186	499.56
391.411	495.56
391.636	503.56
391.86	513.56
392.085	507.56
392.31	510.56
392.534	525.56
392.759	496.56
392.984	502.56
393.208	478.56
393.433	520.56
393.658	486.56
393.882	479.56
394.107	483.56
394.331	510.56
394.556	512.56
394.78	510.56
395.005	506.56
395.229	500.56
395.454	513.56
395.678	515.56
395.903	513.56
396.127	519.56
396.352	502.56
396.576	504.56
396.801	484.56
397.025	499.56
397.249	513.56
397.474	511.56
397.698	534.56
397.922	521.56
398.147	530.56
398.371	529.56
398.595	553.56
398.82	536.56
399.044	581.56
399.268	621.56
399.492	679.56
399.717	751.56
399.941	774.56
400.165	734.56
400.389	667.56
400.613	609.56
400.837	602.56
401.062	576.56
401.286	548.56
401.51	565.56
401.734	567.56
401.958	581.56
402.182	584.56
402.406	597.56
402.63	598.56
402.854	595.56
403.078	602.56
403.302	605.56
403.526	630.56
403.75	614.56
403.974	611.56
404.198	627.56
404.422	625.56
404.645	616.56
404.869	610.56
405.093	636.56
405.317	658.56
405.541	673.56
405.765	612.56
405.988	612.56
406.212	622.56
406.436	655.56
406.66	665.56
406.883	655.56
407.107	677.56
407.331	696.56
407.555	753.56
407.778	752.56
408.002	699.56
408.226	657.56
408.449	617.56
408.673	648.56
408.896	627.56
409.12	671.56
409.344	639.56
409.567	628.56
409.791	611.56
410.014	595.56
410.238	607.56
410.461	606.56
410.685	583.56
410.908	597.56
411.132	602.56
411.355	636.56
411.578	627.56
411.802	583.56
412.025	587.56
412.249	626.56
412.472	600.56
412.695	616.56
412.919	634.56
413.142	575.56
413.365	599.56
413.589	548.56
413.812	555.56
414.035	555.56
414.258	563.56
414.482	566.56
414.705	561.56
414.928	575.56
415.151	555.56
415.374	558.56
415.597	557.56
415.821	552.56
416.044	554.56
416.267	548.56
416.49	563.56
416.713	536.56
416.936	539.56
417.159	548.56
417.382	577.56
417.605	592.56
417.828	576.56
418.051	578.56
418.274	590.56
418.497	543.56
418.72	565.56
418.943	570.56
419.166	582.56
419.389	623.56
419.611	608.56
419.834	599.56
420.057	609.56
420.28	596.56
420.503	545.56
420.726	565.56
420.948	575.56
421.171	606.56
421.394	611.56
421.617	581.56
421.839	550.56
422.062	555.56
422.285	569.56
422.507	614.56
422.73	669.56
422.953	640.56
423.175	601.56
423.398	585.56
423.621	591.56
423.843	622.56
424.066	623.56
424.288	624.56
424.511	591.56
424.733	647.56
424.956	704.56
425.178	665.56
425.401	647.56
425.623	682.56
425.846	588.56
426.068	600.56
426.291	568.56
426.513	559.56
426.735	551.56
426.958	600.56
427.18	648.56
427.402	704.56
427.625	737.56
427.847	669.56
428.069	594.56
428.292	564.56
428.514	537.56
428.736	543.56
428.958	544.56
429.181	511.56
429.403	525.56
429.625	532.56
429.847	538.56
430.069	588.56
430.292	577.56
430.514	518.56
430.736	552.56
430.958	521.56
431.18	521.56
431.402	483.56
431.624	495.56
431.846	519.56
432.068	531.56
432.29	511.56
432.512	489.56
432.734	543.56
432.956	523.56
433.178	493.56
433.4	522.56
433.622	526.56
433.844	533.56
434.066	502.56
434.287	522.56
434.509	522.56
434.731	534.56
434.953	537.56
435.175	559.56
435.397	581.56
435.618	573.56
435.84	579.56
436.062	641.56
436.284	659.56
436.505	575.56
436.727	550.56
436.949	532.56
437.17	511.56
437.392	533.56
437.614	510.56
437.835	511.56
438.057	592.56
438.278	647.56
438.5	645.56
438.721	687.56
438.943	660.56
439.165	568.56
439.386	535.56
439.608	552.56
439.829	550.56
440.05	553.56
440.272	575.56
440.493	556.56
440.715	545.56
440.936	511.56
441.158	563.56
441.379	535.56
441.6	559.56
441.822	584.56
442.043	612.56
442.264	657.56
442.486	658.56
442.707	606.56
442.928	592.56
443.149	573.56
443.371	577.56
443.592	617.56
443.813	666.56
444.034	720.56
444.255	619.56
444.476	602.56
444.698	625.56
444.919	663.56
445.14	737.56
445.361	658.56
445.582	625.56
445.803	650.56
446.024	701.56
446.245	709.56
446.466	629.56
446.687	565.56
446.908	534.56
447.129	533.56
447.35	513.56
447.571	512.56
447.792	503.56
448.013	506.56
448.234	504.56
448.455	528.56
448.675	589.56
448.896	654.56
449.117	585.56
449.338	573.56
449.559	649.56
449.779	705.56
450	575.56
450.221	508.56
450.442	487.56
450.662	480.56
450.883	516.56
451.104	500.56
451.324	505.56
451.545	491.56
451.766	446.56
451.986	454.56
452.207	461.56
452.428	466.56
452.648	444.56
452.869	469.56
453.089	470.56
453.31	480.56
453.53	479.56
453.751	464.56
453.971	448.56
454.192	456.56
454.412	479.56
454.633	469.56
454.853	462.56
455.073	449.56
455.294	471.56
455.514	511.56
455.734	481.56
455.955	439.56
456.175	439.56
456.395	434.56
456.616	440.56
456.836	442.56
457.056	440.56
457.276	417.56
457.497	432.56
457.717	444.56
457.937	436.56
458.157	438.56
458.377	440.56
458.598	480.56
458.818	510.56
459.038	555.56
459.258	566.56
459.478	529.56
459.698	497.56
459.918	515.56
460.138	525.56
460.358	527.56
460.578	561.56
460.798	565.56
461.018	546.56
461.238	545.56
461.458	539.56
461.678	558.56
461.898	537.56
462.118	533.56
462.338	594.56
462.558	565.56
462.777	601.56
462.997	618.56
463.217	664.56
463.437	670.56
463.657	615.56
463.876	626.56
464.096	617.56
464.316	614.56
464.536	630.56
464.755	593.56
464.975	597.56
465.195	585.56
465.414	602.56
465.634	552.56
465.854	526.56
466.073	502.56
466.293	507.56
466.512	479.56
466.732	482.56
466.951	465.56
467.171	470.56
467.391	481.56
467.61	491.56
467.829	491.56
468.049	464.56
468.268	487.56
468.488	459.56
468.707	475.56
468.927	440.56
469.146	468.56
469.365	478.56
469.585	473.56
469.804	488.56
470.023	509.56
470.243	479.56
470.462	506.56
470.681	495.56
470.901	504.56
471.12	511.56
471.339	474.56
471.558	461.56
471.777	490.56
471.997	496.56
472.216	468.56
472.435	473.56
472.654	506.56
472.873	458.56
473.092	433.56
473.311	444.56
473.53	465.56
473.749	491.56
473.968	489.56
474.187	557.56
474.406	536.56
474.625	497.56
474.844	461.56
475.063	452.56
475.282	440.56
475.501	448.56
475.72	475.56
475.939	488.56
476.158	478.56
476.377	478.56
476.596	476.56
476.814	488.56
477.033	507.56
477.252	504.56
477.471	497.56
477.69	503.56
477.908	520.56
478.127	523.56
478.346	521.56
478.564	575.56
478.783	548.56
479.002	575.56
479.22	541.56
479.439	559.56
479.658	571.56
479.876	571.56
480.095	570.56
480.313	591.56
480.532	598.56
480.751	598.56
480.969	609.56
481.188	626.56
481.406	642.56
481.624	554.56
481.843	552.56
482.061	550.56
482.28	537.56
482.498	533.56
482.717	535.56
482.935	529.56
483.153	545.56
483.372	543.56
483.59	537.56
483.808	542.56
484.027	555.56
484.245	527.56
484.463	529.56
484.681	537.56
484.9	560.56
485.118	561.56
485.336	563.56
485.554	562.56
485.772	565.56
485.99	551.56
486.209	549.56
486.427	581.56
486.645	557.56
486.863	563.56
487.081	585.56
487.299	567.56
487.517	572.56
487.735	575.56
487.953	579.56
488.171	587.56
488.389	594.56
488.607	583.56
488.825	561.56
489.043	559.56
489.261	580.56
489.479	568.56
489.696	557.56
489.914	571.56
490.132	572.56
490.35	592.56
490.568	606.56
490.786	602.56
491.003	612.56
491.221	640.56
491.439	643.56
491.657	642.56
491.874	621.56
492.092	655.56
492.31	682.56
492.527	634.56
492.745	661.56
492.963	674.56
493.18	648.56
493.398	661.56
493.615	673.56
493.833	666.56
494.05	648.56
494.268	669.56
494.485	646.56
494.703	657.56
494.92	645.56
495.138	635.56
495.355	629.56
495.573	655.56
495.79	679.56
496.008	685.56
496.225	645.56
496.442	623.56
496.66	671.56
496.877	655.56
497.094	661.56
497.312	674.56
497.529	681.56
497.746	678.56
497.963	711.56
498.181	728.56
498.398	752.56
498.615	769.56
498.832	800.56
499.049	848.56
499.267	903.56
499.484	935.56
499.701	1023.56
499.918	1081.56
500.135	1165.56
500.352	1267.56
500.569	1305.56
500.786	1287.56
501.003	1239.56
501.22	1170.56
501.437	1087.56
501.654	1005.56
501.871	937.56
502.088	895.56
502.305	849.56
502.522	837.56
502.739	790.56
502.956	734.56
503.172	722.56
503.389	729.56
503.606	714.56
503.823	693.56
504.04	700.56
504.256	691.56
504.473	697.56
504.69	690.56
504.907	692.56
505.123	679.56
505.34	646.56
505.557	646.56
505.773	642.56
505.99	627.56
506.207	611.56
506.423	609.56
506.64	603.56
506.856	592.56
507.073	587.56
507.289	589.56
507.506	611.56
507.722	585.56
507.939	615.56
508.155	595.56
508.372	559.56
508.588	558.56
508.805	557.56
509.021	549.56
509.238	570.56
509.454	569.56
509.67	571.56
509.887	572.56
510.103	525.56
510.319	551.56
510.536	592.56
510.752	907.56
510.968	729.56
511.184	560.56
511.401	533.56
511.617	560.56
511.833	539.56
512.049	534.56
512.265	546.56
512.481	533.56
512.698	521.56
512.914	531.56
513.13	525.56
513.346	515.56
513.562	518.56
513.778	529.56
513.994	560.56
514.21	552.56
514.426	543.56
514.642	574.56
514.858	566.56
515.074	605.56
515.29	674.56
515.506	962.56
515.721	815.56
515.937	612.56
516.153	577.56
516.369	572.56
516.585	584.56
516.801	576.56
517.016	602.56
517.232	636.56
517.448	622.56
517.664	630.56
517.879	631.56
518.095	662.56
518.311	655.56
518.527	626.56
518.742	596.56
518.958	575.56
519.173	573.56
519.389	573.56
519.605	536.56
519.82	541.56
520.036	548.56
520.251	547.56
520.467	562.56
520.682	550.56
520.898	550.56
521.113	571.56
521.329	565.56
521.544	614.56
521.76	711.56
521.975	1093.56
522.19	1099.56
522.406	678.56
522.621	542.56
522.836	501.56
523.052	505.56
523.267	511.56
523.482	463.56
523.698	492.56
523.913	479.56
524.128	487.56
524.343	471.56
524.559	460.56
524.774	483.56
524.989	485.56
525.204	447.56
525.419	464.56
525.634	470.56
525.849	457.56
526.064	431.56
526.28	470.56
526.495	467.56
526.71	473.56
526.925	446.56
527.14	432.56
527.355	440.56
527.57	427.56
527.785	446.56
527.999	451.56
528.214	458.56
528.429	440.56
528.644	454.56
528.859	448.56
529.074	455.56
529.289	447.56
529.503	498.56
529.718	507.56
529.933	478.56
530.148	475.56
530.363	454.56
530.577	449.56
530.792	448.56
531.007	451.56
531.221	439.56
531.436	442.56
531.651	439.56
531.865	440.56
532.08	450.56
532.295	449.56
532.509	433.56
532.724	457.56
532.938	437.56
533.153	440.56
533.367	451.56
533.582	431.56
533.796	452.56
534.011	452.56
534.225	443.56
534.44	433.56
534.654	417.56
534.868	428.56
535.083	437.56
535.297	414.56
535.511	432.56
535.726	419.56
535.94	429.56
536.154	436.56
536.369	448.56
536.583	420.56
536.797	419.56
537.011	434.56
537.225	425.56
537.44	426.56
537.654	425.56
537.868	431.56
538.082	409.56
538.296	430.56
538.51	420.56
538.724	414.56
538.938	408.56
539.153	420.56
539.367	449.56
539.581	429.56
539.795	411.56
540.009	409.56
540.222	430.56
540.436	413.56
540.65	403.56
540.864	389.56
541.078	421.56
541.292	406.56
541.506	429.56
541.72	439.56
541.934	436.56
542.147	417.56
542.361	409.56
542.575	417.56
542.789	425.56
543.002	423.56
543.216	403.56
543.43	429.56
543.644	413.56
543.857	404.56
544.071	405.56
544.285	431.56
544.498	422.56
544.712	423.56
544.925	417.56
545.139	420.56
545.352	440.56
545.566	411.56
545.779	409.56
545.993	425.56
546.206	423.56
546.42	421.56
546.633	420.56
546.847	425.56
547.06	414.56
547.274	418.56
547.487	446.56
547.7	418.56
547.914	407.56
548.127	415.56
548.34	425.56
548.554	426.56
548.767	403.56
548.98	421.56
549.193	433.56
549.407	426.56
549.62	409.56
549.833	411.56
550.046	425.56
550.259	435.56
550.473	398.56
550.686	404.56
550.899	414.56
551.112	416.56
551.325	394.56
551.538	407.56
551.751	397.56
551.964	391.56
552.177	406.56
552.39	424.56
552.603	408.56
552.816	457.56
553.029	422.56
553.242	450.56
553.455	449.56
553.667	453.56
553.88	464.56
554.093	451.56
554.306	438.56
554.519	437.56
554.732	414.56
554.944	413.56
555.157	407.56
555.37	415.56
555.583	391.56
555.795	401.56
556.008	389.56
556.221	367.56
556.433	358.56
556.646	373.56
556.859	378.56
557.071	378.56
557.284	372.56
557.496	389.56
557.709	361.56
557.921	374.56
558.134	363.56
558.346	361.56
558.559	367.56
558.771	353.56
558.984	362.56
559.196	370.56
559.409	359.56
559.621	369.56
559.833	339.56
560.046	370.56
560.258	381.56
560.47	319.56
560.683	349.56
560.895	350.56
561.107	367.56
561.32	364.56
561.532	341.56
561.744	363.56
561.956	383.56
562.168	358.56
562.381	360.56
562.593	383.56
562.805	363.56
563.017	372.56
563.229	371.56
563.441	365.56
563.653	364.56
563.865	380.56
564.077	360.56
564.289	370.56
564.501	385.56
564.713	387.56
564.925	369.56
565.137	397.56
565.349	399.56
565.561	418.56
565.773	415.56
565.985	436.56
566.197	419.56
566.408	468.56
566.62	480.56
566.832	501.56
567.044	531.56
567.255	551.56
567.467	553.56
567.679	558.56
567.891	574.56
568.102	560.56
568.314	562.56
568.526	543.56
568.737	486.56
568.949	445.56
569.161	429.56
569.372	422.56
569.584	396.56
569.795	394.56
570.007	383.56
570.218	413.56
570.43	376.56
570.641	380.56
570.853	357.56
571.064	366.56
571.276	369.56
571.487	351.56
571.698	349.56
571.91	370.56
572.121	359.56
572.333	353.56
572.544	328.56
572.755	311.56
572.966	307.56
573.178	288.56
573.389	301.56
573.6	319.56
573.811	314.56
574.023	310.56
574.234	339.56
574.445	311.56
574.656	309.56
574.867	314.56
575.078	316.56
575.289	299.56
575.501	304.56
575.712	293.56
575.923	296.56
576.134	319.56
576.345	304.56
576.556	301.56
576.767	293.56
576.978	285.56
577.188	288.56
577.399	290.56
577.61	285.56
577.821	298.56
578.032	294.56
578.243	324.56
578.454	420.56
578.665	351.56
578.875	301.56
579.086	298.56
579.297	294.56
579.508	291.56
579.718	299.56
579.929	286.56
580.14	277.56
580.35	289.56
580.561	278.56
580.772	295.56
580.982	287.56
581.193	277.56
581.403	287.56
581.614	291.56
581.825	278.56
582.035	280.56
582.246	291.56
582.456	305.56
582.667	246.56
582.877	271.56
583.087	275.56
583.298	264.56
583.508	282.56
583.719	276.56
583.929	266.56
584.139	260.56
584.35	280.56
584.56	272.56
584.77	275.56
584.981	273.56
585.191	273.56
585.401	284.56
585.611	272.56
585.821	279.56
586.032	287.56
586.242	271.56
586.452	271.56
586.662	274.56
586.872	261.56
587.082	265.56
587.292	257.56
587.502	260.56
587.713	267.56
587.923	269.56
588.133	269.56
588.343	263.56
588.553	261.56
588.762	285.56
588.972	266.56
589.182	317.56
589.392	329.56
589.602	273.56
589.812	277.56
590.022	288.56
590.232	259.56
590.441	291.56
590.651	279.56
590.861	255.56
591.071	274.56
591.281	262.56
591.49	271.56
591.7	263.56
591.91	286.56
592.119	279.56
592.329	276.56
592.539	294.56
592.748	304.56
592.958	313.56
593.167	327.56
593.377	315.56
593.587	323.56
593.796	321.56
594.006	335.56
594.215	302.56
594.424	324.56
594.634	314.56
594.843	311.56
595.053	289.56
595.262	284.56
595.472	291.56
595.681	293.56
595.89	287.56
596.1	277.56
596.309	261.56
596.518	254.56
596.727	261.56
596.937	249.56
597.146	253.56
597.355	239.56
597.564	254.56
597.774	257.56
597.983	238.56
598.192	245.56
598.401	226.56
598.61	243.56
598.819	237.56
599.028	242.56
599.237	236.56
599.446	208.56
599.655	248.56
599.864	254.56
600.073	245.56
600.282	227.56
600.491	247.56
600.7	241.56
600.909	230.56
601.118	239.56
601.327	234.56
601.536	237.56
601.745	229.56
601.953	233.56
602.162	244.56
602.371	248.56
602.58	243.56
602.789	235.56
602.997	249.56
603.206	223.56
603.415	231.56
603.623	242.56
603.832	229.56
604.041	233.56
604.249	230.56
604.458	228.56
604.666	233.56
604.875	219.56
605.084	226.56
605.292	223.56
605.501	230.56
605.709	210.56
605.918	218.56
606.126	236.56
606.334	233.56
606.543	218.56
606.751	216.56
606.96	227.56
607.168	226.56
607.376	236.56
607.585	227.56
607.793	208.56
608.001	224.56
608.21	218.56
608.418	226.56
608.626	212.56
608.834	212.56
609.043	218.56
609.251	201.56
609.459	237.56
609.667	225.56
609.875	239.56
610.083	226.56
610.291	216.56
610.499	214.56
610.707	239.56
610.916	213.56
611.124	225.56
611.332	213.56
611.54	214.56
611.748	228.56
611.955	241.56
612.163	224.56
612.371	209.56
612.579	225.56
612.787	235.56
612.995	226.56
613.203	231.56
613.411	208.56
613.618	209.56
613.826	218.56
614.034	219.56
614.242	236.56
614.449	227.56
614.657	232.56
614.865	210.56
615.072	215.56
615.28	198.56
615.488	228.56
615.695	225.56
615.903	221.56
616.111	217.56
616.318	217.56
616.526	209.56
616.733	232.56
616.941	218.56
617.148	224.56
617.356	217.56
617.563	217.56
617.771	222.56
617.978	208.56
618.185	223.56
618.393	229.56
618.6	230.56
618.807	217.56
619.015	207.56
619.222	206.56
619.429	214.56
619.637	226.56
619.844	197.56
620.051	216.56
620.258	194.56
620.466	213.56
620.673	218.56
620.88	199.56
621.087	206.56
621.294	212.56
621.501	197.56
621.708	216.56
621.915	204.56
622.122	213.56
622.329	205.56
622.536	211.56
622.743	202.56
622.95	200.56
623.157	187.56
623.364	207.56
623.571	203.56
623.778	200.56
623.985	204.56
624.192	203.56
624.399	210.56
624.606	227.56
624.812	214.56
625.019	201.56
625.226	206.56
625.433	213.56
625.639	207.56
625.846	190.56
626.053	210.56
626.259	199.56
626.466	203.56
626.673	200.56
626.879	202.56
627.086	201.56
627.293	191.56
627.499	189.56
627.706	185.56
627.912	189.56
628.119	193.56
628.325	189.56
628.532	182.56
628.738	196.56
628.945	183.56
629.151	173.56
629.357	191.56
629.564	181.56
629.77	167.56
629.976	180.56
630.183	184.56
630.389	186.56
630.595	184.56
630.802	184.56
631.008	197.56
631.214	182.56
631.42	177.56
631.627	174.56
631.833	174.56
632.039	181.56
632.245	167.56
632.451	177.56
632.657	181.56
632.863	171.56
633.069	180.56
633.275	186.56
633.481	177.56
633.688	176.56
633.893	186.56
634.099	188.56
634.305	165.56
634.511	173.56
634.717	171.56
634.923	168.56
635.129	175.56
635.335	166.56
635.541	178.56
635.747	179.56
635.952	184.56
636.158	169.56
636.364	157.56
636.57	176.56
636.775	182.56
636.981	166.56
637.187	181.56
637.392	160.56
637.598	173.56
637.804	182.56
638.009	180.56
638.215	167.56
638.421	183.56
638.626	170.56
638.832	159.56
639.037	174.56
639.243	158.56
639.448	170.56
639.654	152.56
639.859	154.56
640.065	179.56
640.27	162.56
640.475	169.56
640.681	171.56
640.886	166.56
641.091	169.56
641.297	182.56
641.502	169.56
641.707	161.56
641.913	170.56
642.118	162.56
642.323	164.56
642.528	171.56
642.733	166.56
642.939	153.56
643.144	169.56
643.349	144.56
643.554	143.56
643.759	154.56
643.964	154.56
644.169	146.56
644.374	161.56
644.579	163.56
644.784	172.56
644.989	154.56
645.194	155.56
645.399	166.56
645.604	146.56
645.809	162.56
646.014	178.56
646.219	169.56
646.423	158.56
646.628	169.56
646.833	164.56
647.038	181.56
647.243	160.56
647.447	169.56
647.652	169.56
647.857	194.56
648.062	163.56
648.266	158.56
648.471	175.56
648.676	159.56
648.88	169.56
649.085	159.56
649.289	177.56
649.494	172.56
649.698	179.56
649.903	177.56
650.107	162.56
650.312	167.56
650.516	168.56
650.721	150.56
650.925	141.56
651.13	143.56
651.334	155.56
651.539	149.56
651.743	139.56
651.947	147.56
652.152	147.56
652.356	148.56
652.56	153.56
652.764	131.56
652.969	133.56
653.173	131.56
653.377	144.56
653.581	136.56
653.785	147.56
653.99	142.56
654.194	135.56
654.398	142.56
654.602	131.56
654.806	144.56
655.01	154.56
655.214	134.56
655.418	141.56
655.622	149.56
655.826	134.56
656.03	143.56
656.234	129.56
656.438	152.56
656.642	157.56
656.846	139.56
657.049	127.56
657.253	135.56
657.457	145.56
657.661	133.56
657.865	110.56
658.068	119.56
658.272	104.56
658.476	110.56
658.68	109.56
658.883	106.56
659.087	105.56
659.291	99.56
659.494	105.56
659.698	100.56
659.901	107.56
660.105	105.56
660.309	98.56
660.512	95.56
660.716	107.56
660.919	107.56
661.123	100.56
661.326	90.56
661.53	93.56
661.733	89.56
661.936	83.56
662.14	104.56
662.343	93.56
662.546	101.56
662.75	74.56
662.953	82.56
663.156	74.56
663.36	84.56
663.563	88.56
663.766	98.56
663.969	90.56
664.173	81.56
664.376	75.56
664.579	92.56
664.782	99.56
664.985	90.56
665.188	76.56
665.391	76.56
665.594	86.56
665.797	86.56
666	83.56
666.203	83.56
666.406	81.56
666.609	80.56
666.812	88.56
667.015	80.56
667.218	87.56
667.421	84.56
667.624	77.56
667.827	71.56
668.03	95.56
668.232	79.56
668.435	92.56
668.638	76.56
668.841	86.56
669.043	82.56
669.246	82.56
669.449	89.56
669.651	84.56
669.854	79.56
670.057	69.56
670.259	98.56
670.462	80.56
670.665	83.56
670.867	75.56
671.07	81.56
671.272	82.56
671.475	87.56
671.677	74.56
671.88	79.56
672.082	77.56
672.284	75.56
672.487	74.56
672.689	93.56
672.892	82.56
