Data from 1960PennyLincolnUp.LampE5.5.200Scan.07172019.P1.ChangedAngle_HRD10591_13-15-22-821.txt Node
Date: Thu Jul 18 13:15:22 EDT 2019
User: cochatt
Spectrometer: HR+D1059
Trigger mode: 1
Integration Time (sec): 1.000000E-1
Scans to average: 1
Electric dark correction enabled: true
Nonlinearity correction enabled: false
Boxcar width: 0
XAxis mode: Wavelengths
Number of Pixels in Spectrum: 2048
>>>>>Begin Spectral Data<<<<<
223.165	-7.38
223.4	-7.38
223.635	-7.38
223.869	-27.38
224.104	-24.38
224.338	-15.38
224.573	-31.38
224.808	-1.38
225.042	-12.38
225.277	-2.38
225.511	-4.38
225.746	8.62
225.98	3.62
226.215	17.62
226.449	18.62
226.683	27.62
226.918	18.62
227.152	31.62
227.387	46.62
227.621	33.62
227.856	34.62
228.09	44.62
228.324	39.62
228.559	56.62
228.793	66.62
229.027	94.62
229.262	104.62
229.496	111.62
229.73	116.62
229.964	114.62
230.199	106.62
230.433	109.62
230.667	106.62
230.901	101.62
231.136	102.62
231.37	112.62
231.604	112.62
231.838	108.62
232.072	105.62
232.306	112.62
232.541	100.62
232.775	104.62
233.009	109.62
233.243	102.62
233.477	111.62
233.711	103.62
233.945	118.62
234.179	115.62
234.413	112.62
234.647	122.62
234.881	132.62
235.115	120.62
235.349	100.62
235.583	114.62
235.817	96.62
236.051	102.62
236.285	115.62
236.519	120.62
236.753	124.62
236.987	128.62
237.221	155.62
237.455	184.62
237.689	145.62
237.922	144.62
238.156	126.62
238.39	126.62
238.624	134.62
238.858	112.62
239.091	128.62
239.325	103.62
239.559	107.62
239.793	121.62
240.027	146.62
240.26	120.62
240.494	127.62
240.728	120.62
240.961	123.62
241.195	132.62
241.429	143.62
241.662	129.62
241.896	110.62
242.13	120.62
242.363	133.62
242.597	130.62
242.83	140.62
243.064	150.62
243.298	138.62
243.531	141.62
243.765	140.62
243.998	147.62
244.232	138.62
244.465	134.62
244.699	144.62
244.932	145.62
245.166	149.62
245.399	150.62
245.633	142.62
245.866	149.62
246.099	137.62
246.333	124.62
246.566	130.62
246.8	162.62
247.033	144.62
247.266	148.62
247.5	167.62
247.733	155.62
247.966	150.62
248.2	160.62
248.433	152.62
248.666	170.62
248.899	190.62
249.133	160.62
249.366	168.62
249.599	163.62
249.832	173.62
250.066	170.62
250.299	166.62
250.532	185.62
250.765	183.62
250.998	190.62
251.231	202.62
251.465	185.62
251.698	197.62
251.931	190.62
252.164	180.62
252.397	182.62
252.63	188.62
252.863	173.62
253.096	193.62
253.329	222.62
253.562	197.62
253.795	194.62
254.028	191.62
254.261	201.62
254.494	197.62
254.727	240.62
254.96	231.62
255.193	248.62
255.426	221.62
255.659	209.62
255.892	215.62
256.124	204.62
256.357	207.62
256.59	201.62
256.823	208.62
257.056	207.62
257.289	200.62
257.521	215.62
257.754	200.62
257.987	186.62
258.22	202.62
258.452	208.62
258.685	206.62
258.918	221.62
259.151	200.62
259.383	203.62
259.616	204.62
259.849	206.62
260.081	210.62
260.314	216.62
260.547	216.62
260.779	234.62
261.012	232.62
261.244	210.62
261.477	222.62
261.71	219.62
261.942	233.62
262.175	204.62
262.407	216.62
262.64	199.62
262.872	200.62
263.105	207.62
263.337	204.62
263.57	223.62
263.802	228.62
264.035	222.62
264.267	205.62
264.499	197.62
264.732	195.62
264.964	198.62
265.197	192.62
265.429	216.62
265.661	220.62
265.894	213.62
266.126	205.62
266.358	216.62
266.591	217.62
266.823	221.62
267.055	220.62
267.287	221.62
267.52	207.62
267.752	230.62
267.984	217.62
268.216	226.62
268.448	226.62
268.681	233.62
268.913	219.62
269.145	253.62
269.377	257.62
269.609	265.62
269.841	257.62
270.073	255.62
270.306	264.62
270.538	294.62
270.77	292.62
271.002	281.62
271.234	252.62
271.466	261.62
271.698	268.62
271.93	297.62
272.162	286.62
272.394	276.62
272.626	273.62
272.858	263.62
273.09	262.62
273.322	253.62
273.553	255.62
273.785	257.62
274.017	237.62
274.249	263.62
274.481	257.62
274.713	259.62
274.945	258.62
275.176	262.62
275.408	252.62
275.64	245.62
275.872	255.62
276.104	251.62
276.335	238.62
276.567	261.62
276.799	286.62
277.031	289.62
277.262	304.62
277.494	317.62
277.726	283.62
277.957	271.62
278.189	242.62
278.421	264.62
278.652	266.62
278.884	253.62
279.115	269.62
279.347	281.62
279.579	254.62
279.81	273.62
280.042	248.62
280.273	268.62
280.505	277.62
280.736	262.62
280.968	280.62
281.199	272.62
281.431	264.62
281.662	273.62
281.894	281.62
282.125	275.62
282.356	277.62
282.588	287.62
282.819	265.62
283.051	271.62
283.282	254.62
283.513	261.62
283.745	280.62
283.976	294.62
284.207	281.62
284.439	280.62
284.67	282.62
284.901	291.62
285.132	273.62
285.364	258.62
285.595	276.62
285.826	280.62
286.057	262.62
286.288	284.62
286.52	286.62
286.751	288.62
286.982	293.62
287.213	270.62
287.444	313.62
287.675	296.62
287.906	278.62
288.138	279.62
288.369	297.62
288.6	301.62
288.831	295.62
289.062	302.62
289.293	287.62
289.524	292.62
289.755	280.62
289.986	302.62
290.217	301.62
290.448	290.62
290.679	284.62
290.91	282.62
291.141	306.62
291.371	296.62
291.602	280.62
291.833	287.62
292.064	279.62
292.295	288.62
292.526	299.62
292.757	303.62
292.987	290.62
293.218	296.62
293.449	298.62
293.68	296.62
293.91	279.62
294.141	298.62
294.372	297.62
294.603	306.62
294.833	296.62
295.064	292.62
295.295	289.62
295.525	290.62
295.756	296.62
295.987	283.62
296.217	309.62
296.448	319.62
296.679	298.62
296.909	302.62
297.14	296.62
297.37	306.62
297.601	318.62
297.831	286.62
298.062	288.62
298.292	285.62
298.523	314.62
298.753	298.62
298.984	307.62
299.214	316.62
299.445	307.62
299.675	323.62
299.905	309.62
300.136	300.62
300.366	316.62
300.597	320.62
300.827	306.62
301.057	335.62
301.288	320.62
301.518	310.62
301.748	325.62
301.979	324.62
302.209	327.62
302.439	335.62
302.669	328.62
302.9	332.62
303.13	325.62
303.36	336.62
303.59	320.62
303.82	338.62
304.051	324.62
304.281	333.62
304.511	348.62
304.741	318.62
304.971	316.62
305.201	338.62
305.431	328.62
305.661	338.62
305.891	331.62
306.121	332.62
306.352	343.62
306.582	332.62
306.812	324.62
307.042	351.62
307.272	340.62
307.502	308.62
307.731	333.62
307.961	329.62
308.191	331.62
308.421	329.62
308.651	331.62
308.881	335.62
309.111	342.62
309.341	321.62
309.571	320.62
309.8	342.62
310.03	365.62
310.26	354.62
310.49	351.62
310.72	366.62
310.949	362.62
311.179	358.62
311.409	364.62
311.639	360.62
311.868	375.62
312.098	359.62
312.328	354.62
312.557	369.62
312.787	392.62
313.017	378.62
313.246	379.62
313.476	384.62
313.706	369.62
313.935	370.62
314.165	368.62
314.394	374.62
314.624	382.62
314.853	358.62
315.083	370.62
315.312	368.62
315.542	375.62
315.771	366.62
316.001	345.62
316.23	368.62
316.46	388.62
316.689	366.62
316.919	385.62
317.148	371.62
317.377	383.62
317.607	370.62
317.836	379.62
318.065	392.62
318.295	383.62
318.524	349.62
318.753	358.62
318.983	352.62
319.212	390.62
319.441	386.62
319.67	382.62
319.9	378.62
320.129	376.62
320.358	387.62
320.587	382.62
320.816	385.62
321.046	372.62
321.275	353.62
321.504	406.62
321.733	392.62
321.962	395.62
322.191	382.62
322.42	439.62
322.649	422.62
322.878	425.62
323.108	434.62
323.337	441.62
323.566	436.62
323.795	450.62
324.024	512.62
324.253	584.62
324.482	776.62
324.71	1093.62
324.939	1489.62
325.168	1272.62
325.397	732.62
325.626	543.62
325.855	457.62
326.084	445.62
326.313	460.62
326.542	447.62
326.77	497.62
326.999	571.62
327.228	748.62
327.457	992.62
327.686	1169.62
327.914	814.62
328.143	595.62
328.372	537.62
328.6	508.62
328.829	498.62
329.058	489.62
329.287	476.62
329.515	457.62
329.744	446.62
329.972	455.62
330.201	465.62
330.43	488.62
330.658	494.62
330.887	519.62
331.115	488.62
331.344	457.62
331.572	456.62
331.801	435.62
332.03	443.62
332.258	441.62
332.486	448.62
332.715	433.62
332.943	443.62
333.172	438.62
333.4	455.62
333.629	445.62
333.857	463.62
334.085	453.62
334.314	467.62
334.542	475.62
334.771	511.62
334.999	460.62
335.227	434.62
335.455	434.62
335.684	449.62
335.912	463.62
336.14	442.62
336.369	422.62
336.597	422.62
336.825	398.62
337.053	424.62
337.281	422.62
337.51	428.62
337.738	432.62
337.966	409.62
338.194	424.62
338.422	444.62
338.65	417.62
338.878	414.62
339.106	404.62
339.334	424.62
339.562	425.62
339.79	408.62
340.018	421.62
340.246	430.62
340.474	412.62
340.702	417.62
340.93	407.62
341.158	400.62
341.386	403.62
341.614	431.62
341.842	413.62
342.07	399.62
342.298	412.62
342.526	409.62
342.754	397.62
342.981	404.62
343.209	397.62
343.437	395.62
343.665	402.62
343.893	437.62
344.12	424.62
344.348	436.62
344.576	426.62
344.804	416.62
345.031	432.62
345.259	422.62
345.487	404.62
345.714	394.62
345.942	392.62
346.17	399.62
346.397	395.62
346.625	390.62
346.853	388.62
347.08	407.62
347.308	383.62
347.535	389.62
347.763	397.62
347.99	390.62
348.218	389.62
348.445	383.62
348.673	390.62
348.9	399.62
349.128	382.62
349.355	381.62
349.583	379.62
349.81	375.62
350.037	365.62
350.265	375.62
350.492	382.62
350.72	399.62
350.947	380.62
351.174	374.62
351.402	398.62
351.629	384.62
351.856	394.62
352.083	402.62
352.311	392.62
352.538	388.62
352.765	396.62
352.992	389.62
353.22	393.62
353.447	376.62
353.674	376.62
353.901	367.62
354.128	372.62
354.355	361.62
354.583	386.62
354.81	376.62
355.037	373.62
355.264	353.62
355.491	349.62
355.718	360.62
355.945	376.62
356.172	375.62
356.399	331.62
356.626	346.62
356.853	348.62
357.08	384.62
357.307	367.62
357.534	362.62
357.761	360.62
357.988	347.62
358.215	345.62
358.441	361.62
358.668	352.62
358.895	372.62
359.122	377.62
359.349	390.62
359.576	367.62
359.802	384.62
360.029	392.62
360.256	392.62
360.483	404.62
360.709	376.62
360.936	384.62
361.163	377.62
361.39	394.62
361.616	361.62
361.843	389.62
362.07	385.62
362.296	383.62
362.523	375.62
362.749	379.62
362.976	342.62
363.203	356.62
363.429	363.62
363.656	358.62
363.882	361.62
364.109	360.62
364.335	364.62
364.562	322.62
364.788	358.62
365.015	363.62
365.241	370.62
365.468	375.62
365.694	373.62
365.92	368.62
366.147	381.62
366.373	364.62
366.599	362.62
366.826	353.62
367.052	370.62
367.278	351.62
367.505	360.62
367.731	361.62
367.957	376.62
368.184	368.62
368.41	384.62
368.636	366.62
368.862	382.62
369.089	377.62
369.315	366.62
369.541	367.62
369.767	349.62
369.993	368.62
370.219	376.62
370.445	393.62
370.672	385.62
370.898	364.62
371.124	373.62
371.35	366.62
371.576	366.62
371.802	376.62
372.028	361.62
372.254	360.62
372.48	360.62
372.706	377.62
372.932	370.62
373.158	359.62
373.384	344.62
373.61	370.62
373.835	366.62
374.061	367.62
374.287	375.62
374.513	375.62
374.739	365.62
374.965	373.62
375.191	368.62
375.416	358.62
375.642	360.62
375.868	390.62
376.094	362.62
376.319	359.62
376.545	342.62
376.771	349.62
376.997	362.62
377.222	359.62
377.448	367.62
377.674	358.62
377.899	359.62
378.125	365.62
378.35	353.62
378.576	350.62
378.802	348.62
379.027	356.62
379.253	363.62
379.478	368.62
379.704	357.62
379.929	340.62
380.155	358.62
380.38	360.62
380.606	368.62
380.831	356.62
381.057	370.62
381.282	368.62
381.507	366.62
381.733	348.62
381.958	363.62
382.184	360.62
382.409	353.62
382.634	372.62
382.86	374.62
383.085	379.62
383.31	368.62
383.535	351.62
383.761	370.62
383.986	364.62
384.211	366.62
384.436	377.62
384.662	378.62
384.887	369.62
385.112	387.62
385.337	373.62
385.562	376.62
385.787	371.62
386.013	385.62
386.238	391.62
386.463	384.62
386.688	394.62
386.913	376.62
387.138	390.62
387.363	396.62
387.588	367.62
387.813	392.62
388.038	404.62
388.263	384.62
388.488	388.62
388.713	397.62
388.938	406.62
389.163	383.62
389.387	380.62
389.612	372.62
389.837	384.62
390.062	377.62
390.287	385.62
390.512	374.62
390.736	397.62
390.961	392.62
391.186	371.62
391.411	395.62
391.636	394.62
391.86	394.62
392.085	409.62
392.31	414.62
392.534	383.62
392.759	401.62
392.984	390.62
393.208	398.62
393.433	383.62
393.658	385.62
393.882	395.62
394.107	392.62
394.331	400.62
394.556	378.62
394.78	395.62
395.005	409.62
395.229	391.62
395.454	394.62
395.678	404.62
395.903	400.62
396.127	405.62
396.352	418.62
396.576	399.62
396.801	394.62
397.025	386.62
397.249	387.62
397.474	404.62
397.698	407.62
397.922	416.62
398.147	410.62
398.371	422.62
398.595	437.62
398.82	421.62
399.044	440.62
399.268	454.62
399.492	477.62
399.717	477.62
399.941	508.62
400.165	516.62
400.389	522.62
400.613	493.62
400.837	461.62
401.062	434.62
401.286	432.62
401.51	437.62
401.734	433.62
401.958	433.62
402.182	425.62
402.406	439.62
402.63	430.62
402.854	434.62
403.078	436.62
403.302	429.62
403.526	433.62
403.75	442.62
403.974	433.62
404.198	451.62
404.422	447.62
404.645	448.62
404.869	441.62
405.093	469.62
405.317	496.62
405.541	510.62
405.765	487.62
405.988	465.62
406.212	454.62
406.436	464.62
406.66	491.62
406.883	471.62
407.107	492.62
407.331	506.62
407.555	563.62
407.778	561.62
408.002	525.62
408.226	476.62
408.449	465.62
408.673	495.62
408.896	497.62
409.12	529.62
409.344	484.62
409.567	469.62
409.791	451.62
410.014	432.62
410.238	457.62
410.461	445.62
410.685	443.62
410.908	451.62
411.132	484.62
411.355	493.62
411.578	492.62
411.802	455.62
412.025	432.62
412.249	443.62
412.472	456.62
412.695	477.62
412.919	485.62
413.142	442.62
413.365	422.62
413.589	430.62
413.812	416.62
414.035	418.62
414.258	411.62
414.482	412.62
414.705	416.62
414.928	415.62
415.151	402.62
415.374	444.62
415.597	408.62
415.821	409.62
416.044	429.62
416.267	418.62
416.49	418.62
416.713	438.62
416.936	416.62
417.159	401.62
417.382	380.62
417.605	398.62
417.828	429.62
418.051	438.62
418.274	413.62
418.497	392.62
418.72	426.62
418.943	406.62
419.166	414.62
419.389	433.62
419.611	454.62
419.834	428.62
420.057	432.62
420.28	444.62
420.503	416.62
420.726	405.62
420.948	424.62
421.171	469.62
421.394	476.62
421.617	446.62
421.839	422.62
422.062	439.62
422.285	456.62
422.507	469.62
422.73	518.62
422.953	503.62
423.175	452.62
423.398	452.62
423.621	449.62
423.843	439.62
424.066	447.62
424.288	444.62
424.511	456.62
424.733	494.62
424.956	553.62
425.178	542.62
425.401	508.62
425.623	543.62
425.846	460.62
426.068	444.62
426.291	440.62
426.513	452.62
426.735	452.62
426.958	476.62
427.18	540.62
427.402	626.62
427.625	682.62
427.847	577.62
428.069	540.62
428.292	477.62
428.514	434.62
428.736	417.62
428.958	422.62
429.181	440.62
429.403	407.62
429.625	436.62
429.847	441.62
430.069	492.62
430.292	491.62
430.514	407.62
430.736	412.62
430.958	396.62
431.18	370.62
431.402	385.62
431.624	370.62
431.846	386.62
432.068	400.62
432.29	411.62
432.512	396.62
432.734	409.62
432.956	384.62
433.178	423.62
433.4	420.62
433.622	402.62
433.844	404.62
434.066	394.62
434.287	409.62
434.509	411.62
434.731	413.62
434.953	401.62
435.175	424.62
435.397	433.62
435.618	448.62
435.84	459.62
436.062	532.62
436.284	588.62
436.505	503.62
436.727	448.62
436.949	428.62
437.17	412.62
437.392	394.62
437.614	423.62
437.835	447.62
438.057	492.62
438.278	561.62
438.5	551.62
438.721	609.62
438.943	614.62
439.165	505.62
439.386	436.62
439.608	438.62
439.829	438.62
440.05	444.62
440.272	471.62
440.493	464.62
440.715	428.62
440.936	422.62
441.158	417.62
441.379	413.62
441.6	421.62
441.822	448.62
442.043	479.62
442.264	538.62
442.486	533.62
442.707	455.62
442.928	461.62
443.149	447.62
443.371	468.62
443.592	500.62
443.813	552.62
444.034	587.62
444.255	521.62
444.476	458.62
444.698	436.62
444.919	441.62
445.14	537.62
445.361	486.62
445.582	454.62
445.803	499.62
446.024	566.62
446.245	567.62
446.466	528.62
446.687	468.62
446.908	434.62
447.129	422.62
447.35	409.62
447.571	414.62
447.792	399.62
448.013	420.62
448.234	395.62
448.455	449.62
448.675	540.62
448.896	604.62
449.117	526.62
449.338	493.62
449.559	562.62
449.779	606.62
450	510.62
450.221	456.62
450.442	413.62
450.662	399.62
450.883	393.62
451.104	388.62
451.324	412.62
451.545	379.62
451.766	361.62
451.986	378.62
452.207	386.62
452.428	359.62
452.648	364.62
452.869	387.62
453.089	367.62
453.31	385.62
453.53	377.62
453.751	387.62
453.971	358.62
454.192	368.62
454.412	368.62
454.633	359.62
454.853	365.62
455.073	381.62
455.294	385.62
455.514	416.62
455.734	394.62
455.955	362.62
456.175	364.62
456.395	353.62
456.616	350.62
456.836	362.62
457.056	343.62
457.276	330.62
457.497	350.62
457.717	336.62
457.937	362.62
458.157	366.62
458.377	355.62
458.598	366.62
458.818	416.62
459.038	446.62
459.258	486.62
459.478	409.62
459.698	398.62
459.918	378.62
460.138	392.62
460.358	386.62
460.578	406.62
460.798	396.62
461.018	398.62
461.238	382.62
461.458	395.62
461.678	401.62
461.898	421.62
462.118	408.62
462.338	422.62
462.558	402.62
462.777	408.62
462.997	440.62
463.217	447.62
463.437	435.62
463.657	444.62
463.876	414.62
464.096	417.62
464.316	402.62
464.536	432.62
464.755	400.62
464.975	410.62
465.195	454.62
465.414	470.62
465.634	407.62
465.854	398.62
466.073	396.62
466.293	370.62
466.512	378.62
466.732	377.62
466.951	376.62
467.171	389.62
467.391	386.62
467.61	402.62
467.829	390.62
468.049	378.62
468.268	388.62
468.488	372.62
468.707	369.62
468.927	364.62
469.146	368.62
469.365	371.62
469.585	369.62
469.804	375.62
470.023	382.62
470.243	392.62
470.462	368.62
470.681	407.62
470.901	381.62
471.12	385.62
471.339	379.62
471.558	394.62
471.777	390.62
471.997	384.62
472.216	392.62
472.435	407.62
472.654	397.62
472.873	387.62
473.092	401.62
473.311	381.62
473.53	373.62
473.749	385.62
473.968	420.62
474.187	477.62
474.406	500.62
474.625	416.62
474.844	386.62
475.063	394.62
475.282	391.62
475.501	378.62
475.72	379.62
475.939	387.62
476.158	383.62
476.377	401.62
476.596	402.62
476.814	407.62
477.033	398.62
477.252	398.62
477.471	400.62
477.69	422.62
477.908	409.62
478.127	415.62
478.346	403.62
478.564	440.62
478.783	429.62
479.002	434.62
479.22	432.62
479.439	450.62
479.658	437.62
479.876	450.62
480.095	468.62
480.313	483.62
480.532	477.62
480.751	444.62
480.969	455.62
481.188	508.62
481.406	504.62
481.624	476.62
481.843	449.62
482.061	455.62
482.28	432.62
482.498	440.62
482.717	444.62
482.935	449.62
483.153	468.62
483.372	448.62
483.59	428.62
483.808	434.62
484.027	438.62
484.245	429.62
484.463	449.62
484.681	459.62
484.9	457.62
485.118	453.62
485.336	433.62
485.554	459.62
485.772	468.62
485.99	425.62
486.209	458.62
486.427	458.62
486.645	458.62
486.863	469.62
487.081	470.62
487.299	486.62
487.517	481.62
487.735	474.62
487.953	452.62
488.171	478.62
488.389	475.62
488.607	457.62
488.825	486.62
489.043	460.62
489.261	465.62
489.479	473.62
489.696	467.62
489.914	481.62
490.132	491.62
490.35	504.62
490.568	500.62
490.786	502.62
491.003	491.62
491.221	504.62
491.439	498.62
491.657	506.62
491.874	504.62
492.092	530.62
492.31	502.62
492.527	522.62
492.745	529.62
492.963	525.62
493.18	522.62
493.398	539.62
493.615	536.62
493.833	524.62
494.05	552.62
494.268	537.62
494.485	519.62
494.703	531.62
494.92	536.62
495.138	537.62
495.355	523.62
495.573	526.62
495.79	556.62
496.008	552.62
496.225	554.62
496.442	549.62
496.66	562.62
496.877	555.62
497.094	551.62
497.312	557.62
497.529	580.62
497.746	573.62
497.963	590.62
498.181	617.62
498.398	602.62
498.615	623.62
498.832	608.62
499.049	634.62
499.267	643.62
499.484	664.62
499.701	690.62
499.918	712.62
500.135	763.62
500.352	766.62
500.569	786.62
500.786	789.62
501.003	773.62
501.22	758.62
501.437	720.62
501.654	717.62
501.871	704.62
502.088	657.62
502.305	639.62
502.522	641.62
502.739	615.62
502.956	603.62
503.172	592.62
503.389	559.62
503.606	567.62
503.823	568.62
504.04	556.62
504.256	571.62
504.473	568.62
504.69	564.62
504.907	542.62
505.123	521.62
505.34	528.62
505.557	527.62
505.773	501.62
505.99	513.62
506.207	529.62
506.423	517.62
506.64	517.62
506.856	505.62
507.073	512.62
507.289	492.62
507.506	512.62
507.722	513.62
507.939	525.62
508.155	491.62
508.372	500.62
508.588	507.62
508.805	502.62
509.021	498.62
509.238	483.62
509.454	502.62
509.67	494.62
509.887	485.62
510.103	464.62
510.319	489.62
510.536	555.62
510.752	824.62
510.968	653.62
511.184	492.62
511.401	468.62
511.617	459.62
511.833	459.62
512.049	454.62
512.265	452.62
512.481	470.62
512.698	489.62
512.914	454.62
513.13	456.62
513.346	440.62
513.562	449.62
513.778	479.62
513.994	463.62
514.21	473.62
514.426	478.62
514.642	511.62
514.858	530.62
515.074	550.62
515.29	616.62
515.506	796.62
515.721	691.62
515.937	515.62
516.153	490.62
516.369	499.62
516.585	490.62
516.801	470.62
517.016	488.62
517.232	466.62
517.448	492.62
517.664	477.62
517.879	504.62
518.095	476.62
518.311	488.62
518.527	493.62
518.742	478.62
518.958	489.62
519.173	451.62
519.389	468.62
519.605	473.62
519.82	457.62
520.036	468.62
520.251	474.62
520.467	497.62
520.682	500.62
520.898	500.62
521.113	489.62
521.329	519.62
521.544	564.62
521.76	662.62
521.975	978.62
522.19	932.62
522.406	603.62
522.621	491.62
522.836	466.62
523.052	452.62
523.267	432.62
523.482	432.62
523.698	429.62
523.913	433.62
524.128	431.62
524.343	413.62
524.559	419.62
524.774	416.62
524.989	420.62
525.204	406.62
525.419	429.62
525.634	399.62
525.849	399.62
526.064	407.62
526.28	392.62
526.495	396.62
526.71	398.62
526.925	378.62
527.14	384.62
527.355	396.62
527.57	380.62
527.785	403.62
527.999	396.62
528.214	380.62
528.429	394.62
528.644	390.62
528.859	382.62
529.074	392.62
529.289	390.62
529.503	433.62
529.718	421.62
529.933	411.62
530.148	370.62
530.363	393.62
530.577	392.62
530.792	374.62
531.007	373.62
531.221	395.62
531.436	378.62
531.651	384.62
531.865	380.62
532.08	375.62
532.295	368.62
532.509	374.62
532.724	357.62
532.938	382.62
533.153	360.62
533.367	371.62
533.582	367.62
533.796	372.62
534.011	379.62
534.225	387.62
534.44	359.62
534.654	366.62
534.868	382.62
535.083	385.62
535.297	394.62
535.511	384.62
535.726	377.62
535.94	388.62
536.154	361.62
536.369	365.62
536.583	340.62
536.797	375.62
537.011	384.62
537.225	366.62
537.44	366.62
537.654	373.62
537.868	369.62
538.082	356.62
538.296	356.62
538.51	371.62
538.724	361.62
538.938	356.62
539.153	371.62
539.367	366.62
539.581	368.62
539.795	356.62
540.009	345.62
540.222	362.62
540.436	357.62
540.65	354.62
540.864	368.62
541.078	375.62
541.292	374.62
541.506	359.62
541.72	360.62
541.934	338.62
542.147	352.62
542.361	364.62
542.575	351.62
542.789	361.62
543.002	347.62
543.216	370.62
543.43	374.62
543.644	366.62
543.857	345.62
544.071	358.62
544.285	372.62
544.498	358.62
544.712	362.62
544.925	364.62
545.139	353.62
545.352	347.62
545.566	333.62
545.779	371.62
545.993	352.62
546.206	364.62
546.42	357.62
546.633	345.62
546.847	357.62
547.06	349.62
547.274	346.62
547.487	348.62
547.7	323.62
547.914	321.62
548.127	349.62
548.34	364.62
548.554	362.62
548.767	362.62
548.98	335.62
549.193	330.62
549.407	348.62
549.62	355.62
549.833	350.62
550.046	345.62
550.259	337.62
550.473	337.62
550.686	352.62
550.899	351.62
551.112	332.62
551.325	342.62
551.538	340.62
551.751	319.62
551.964	325.62
552.177	336.62
552.39	345.62
552.603	356.62
552.816	352.62
553.029	341.62
553.242	342.62
553.455	346.62
553.667	357.62
553.88	368.62
554.093	343.62
554.306	344.62
554.519	348.62
554.732	314.62
554.944	339.62
555.157	331.62
555.37	325.62
555.583	332.62
555.795	321.62
556.008	330.62
556.221	336.62
556.433	330.62
556.646	326.62
556.859	321.62
557.071	313.62
557.284	314.62
557.496	329.62
557.709	309.62
557.921	319.62
558.134	306.62
558.346	314.62
558.559	298.62
558.771	314.62
558.984	309.62
559.196	301.62
559.409	309.62
559.621	309.62
559.833	308.62
560.046	302.62
560.258	309.62
560.47	323.62
560.683	309.62
560.895	304.62
561.107	306.62
561.32	319.62
561.532	308.62
561.744	298.62
561.956	303.62
562.168	308.62
562.381	318.62
562.593	317.62
562.805	314.62
563.017	317.62
563.229	321.62
563.441	310.62
563.653	311.62
563.865	319.62
564.077	332.62
564.289	328.62
564.501	322.62
564.713	336.62
564.925	327.62
565.137	336.62
565.349	345.62
565.561	329.62
565.773	331.62
565.985	343.62
566.197	352.62
566.408	353.62
566.62	385.62
566.832	364.62
567.044	382.62
567.255	364.62
567.467	396.62
567.679	392.62
567.891	383.62
568.102	375.62
568.314	370.62
568.526	386.62
568.737	352.62
568.949	362.62
569.161	363.62
569.372	333.62
569.584	321.62
569.795	318.62
570.007	305.62
570.218	336.62
570.43	334.62
570.641	293.62
570.853	310.62
571.064	304.62
571.276	302.62
571.487	303.62
571.698	282.62
571.91	288.62
572.121	306.62
572.333	286.62
572.544	270.62
572.755	273.62
572.966	270.62
573.178	294.62
573.389	280.62
573.6	282.62
573.811	274.62
574.023	276.62
574.234	288.62
574.445	252.62
574.656	264.62
574.867	271.62
575.078	268.62
575.289	271.62
575.501	273.62
575.712	252.62
575.923	272.62
576.134	249.62
576.345	257.62
576.556	263.62
576.767	279.62
576.978	258.62
577.188	270.62
577.399	269.62
577.61	256.62
577.821	264.62
578.032	256.62
578.243	286.62
578.454	417.62
578.665	307.62
578.875	270.62
579.086	244.62
579.297	258.62
579.508	266.62
579.718	245.62
579.929	249.62
580.14	235.62
580.35	264.62
580.561	264.62
580.772	258.62
580.982	270.62
581.193	253.62
581.403	253.62
581.614	258.62
581.825	242.62
582.035	248.62
582.246	244.62
582.456	260.62
582.667	246.62
582.877	248.62
583.087	241.62
583.298	243.62
583.508	225.62
583.719	258.62
583.929	248.62
584.139	233.62
584.35	220.62
584.56	250.62
584.77	230.62
584.981	244.62
585.191	237.62
585.401	244.62
585.611	252.62
585.821	229.62
586.032	254.62
586.242	224.62
586.452	241.62
586.662	248.62
586.872	233.62
587.082	238.62
587.292	235.62
587.502	231.62
587.713	236.62
587.923	242.62
588.133	238.62
588.343	241.62
588.553	240.62
588.762	245.62
588.972	262.62
589.182	288.62
589.392	265.62
589.602	237.62
589.812	272.62
590.022	238.62
590.232	241.62
590.441	235.62
590.651	238.62
590.861	247.62
591.071	236.62
591.281	237.62
591.49	256.62
591.7	229.62
591.91	249.62
592.119	247.62
592.329	262.62
592.539	268.62
592.748	260.62
592.958	240.62
593.167	269.62
593.377	260.62
593.587	268.62
593.796	244.62
594.006	234.62
594.215	238.62
594.424	252.62
594.634	247.62
594.843	223.62
595.053	258.62
595.262	237.62
595.472	235.62
595.681	237.62
595.89	218.62
596.1	233.62
596.309	246.62
596.518	213.62
596.727	243.62
596.937	240.62
597.146	235.62
597.355	215.62
597.564	225.62
597.774	208.62
597.983	216.62
598.192	227.62
598.401	200.62
598.61	220.62
598.819	205.62
599.028	230.62
599.237	246.62
599.446	216.62
599.655	203.62
599.864	219.62
600.073	201.62
600.282	212.62
600.491	216.62
600.7	222.62
600.909	217.62
601.118	223.62
601.327	206.62
601.536	218.62
601.745	209.62
601.953	212.62
602.162	197.62
602.371	217.62
602.58	200.62
602.789	214.62
602.997	210.62
603.206	217.62
603.415	211.62
603.623	200.62
603.832	204.62
604.041	222.62
604.249	208.62
604.458	197.62
604.666	201.62
604.875	215.62
605.084	191.62
605.292	204.62
605.501	212.62
605.709	217.62
605.918	208.62
606.126	215.62
606.334	205.62
606.543	194.62
606.751	196.62
606.96	206.62
607.168	191.62
607.376	216.62
607.585	201.62
607.793	209.62
608.001	200.62
608.21	209.62
608.418	190.62
608.626	197.62
608.834	192.62
609.043	207.62
609.251	203.62
609.459	190.62
609.667	193.62
609.875	187.62
610.083	200.62
610.291	206.62
610.499	197.62
610.707	195.62
610.916	210.62
611.124	197.62
611.332	199.62
611.54	207.62
611.748	193.62
611.955	207.62
612.163	194.62
612.371	212.62
612.579	195.62
612.787	204.62
612.995	195.62
613.203	215.62
613.411	190.62
613.618	196.62
613.826	207.62
614.034	209.62
614.242	205.62
614.449	177.62
614.657	195.62
614.865	186.62
615.072	193.62
615.28	202.62
615.488	196.62
615.695	188.62
615.903	176.62
616.111	198.62
616.318	188.62
616.526	186.62
616.733	202.62
616.941	200.62
617.148	191.62
617.356	200.62
617.563	190.62
617.771	205.62
617.978	192.62
618.185	172.62
618.393	183.62
618.6	201.62
618.807	193.62
619.015	200.62
619.222	189.62
619.429	196.62
619.637	199.62
619.844	188.62
620.051	190.62
620.258	185.62
620.466	177.62
620.673	197.62
620.88	185.62
621.087	179.62
621.294	184.62
621.501	199.62
621.708	193.62
621.915	189.62
622.122	182.62
622.329	177.62
622.536	171.62
622.743	183.62
622.95	185.62
623.157	176.62
623.364	173.62
623.571	170.62
623.778	188.62
623.985	184.62
624.192	157.62
624.399	170.62
624.606	182.62
624.812	181.62
625.019	174.62
625.226	178.62
625.433	169.62
625.639	172.62
625.846	179.62
626.053	177.62
626.259	154.62
626.466	158.62
626.673	167.62
626.879	166.62
627.086	158.62
627.293	159.62
627.499	159.62
627.706	176.62
627.912	176.62
628.119	185.62
628.325	179.62
628.532	176.62
628.738	174.62
628.945	185.62
629.151	160.62
629.357	160.62
629.564	166.62
629.77	151.62
629.976	157.62
630.183	172.62
630.389	161.62
630.595	160.62
630.802	164.62
631.008	183.62
631.214	175.62
631.42	158.62
631.627	175.62
631.833	151.62
632.039	161.62
632.245	161.62
632.451	156.62
632.657	157.62
632.863	160.62
633.069	169.62
633.275	164.62
633.481	150.62
633.688	142.62
633.893	154.62
634.099	161.62
634.305	149.62
634.511	160.62
634.717	153.62
634.923	160.62
635.129	166.62
635.335	168.62
635.541	150.62
635.747	148.62
635.952	160.62
636.158	156.62
636.364	180.62
636.57	157.62
636.775	164.62
636.981	163.62
637.187	155.62
637.392	153.62
637.598	156.62
637.804	163.62
638.009	166.62
638.215	156.62
638.421	152.62
638.626	149.62
638.832	155.62
639.037	164.62
639.243	155.62
639.448	162.62
639.654	153.62
639.859	150.62
640.065	149.62
640.27	150.62
640.475	167.62
640.681	154.62
640.886	160.62
641.091	149.62
641.297	171.62
641.502	149.62
641.707	160.62
641.913	144.62
642.118	141.62
642.323	152.62
642.528	146.62
642.733	164.62
642.939	156.62
643.144	146.62
643.349	148.62
643.554	141.62
643.759	137.62
643.964	144.62
644.169	150.62
644.374	141.62
644.579	150.62
644.784	148.62
644.989	138.62
645.194	132.62
645.399	143.62
645.604	154.62
645.809	160.62
646.014	147.62
646.219	164.62
646.423	140.62
646.628	153.62
646.833	151.62
647.038	148.62
647.243	141.62
647.447	129.62
647.652	139.62
647.857	139.62
648.062	157.62
648.266	162.62
648.471	153.62
648.676	148.62
648.88	159.62
649.085	137.62
649.289	153.62
649.494	147.62
649.698	148.62
649.903	165.62
650.107	158.62
650.312	140.62
650.516	154.62
650.721	142.62
650.925	127.62
651.13	138.62
651.334	129.62
651.539	133.62
651.743	130.62
651.947	144.62
652.152	146.62
652.356	151.62
652.56	120.62
652.764	128.62
652.969	138.62
653.173	139.62
653.377	140.62
653.581	123.62
653.785	140.62
653.99	121.62
654.194	126.62
654.398	137.62
654.602	134.62
654.806	116.62
655.01	130.62
655.214	123.62
655.418	130.62
655.622	120.62
655.826	116.62
656.03	113.62
656.234	121.62
656.438	138.62
656.642	131.62
656.846	118.62
657.049	142.62
657.253	129.62
657.457	120.62
657.661	123.62
657.865	116.62
658.068	99.62
658.272	112.62
658.476	108.62
658.68	95.62
658.883	100.62
659.087	93.62
659.291	104.62
659.494	100.62
659.698	100.62
659.901	94.62
660.105	82.62
660.309	92.62
660.512	98.62
660.716	98.62
660.919	82.62
661.123	103.62
661.326	94.62
661.53	107.62
661.733	89.62
661.936	81.62
662.14	86.62
662.343	77.62
662.546	101.62
662.75	94.62
662.953	89.62
663.156	92.62
663.36	87.62
663.563	79.62
663.766	74.62
663.969	90.62
664.173	77.62
664.376	91.62
664.579	97.62
664.782	87.62
664.985	75.62
665.188	85.62
665.391	87.62
665.594	82.62
665.797	74.62
666	87.62
666.203	73.62
666.406	88.62
666.609	85.62
666.812	91.62
667.015	82.62
667.218	98.62
667.421	73.62
667.624	84.62
667.827	87.62
668.03	81.62
668.232	86.62
668.435	76.62
668.638	80.62
668.841	98.62
669.043	84.62
669.246	84.62
669.449	93.62
669.651	86.62
669.854	77.62
670.057	80.62
670.259	81.62
670.462	72.62
670.665	90.62
670.867	85.62
671.07	89.62
671.272	77.62
671.475	88.62
671.677	83.62
671.88	75.62
672.082	82.62
672.284	80.62
672.487	75.62
672.689	83.62
672.892	88.62
