Data from 1961.PennyLincolnUp.Lamp.En5.5.200Scan.071719.P1._HRD10591_13-47-41-058.txt Node
Date: Thu Jul 18 13:47:41 EDT 2019
User: cochatt
Spectrometer: HR+D1059
Trigger mode: 1
Integration Time (sec): 1.000000E-1
Scans to average: 1
Electric dark correction enabled: true
Nonlinearity correction enabled: false
Boxcar width: 0
XAxis mode: Wavelengths
Number of Pixels in Spectrum: 2048
>>>>>Begin Spectral Data<<<<<
223.165	-10.69
223.4	-10.69
223.635	-10.69
223.869	-20.69
224.104	-27.69
224.338	-14.69
224.573	-15.69
224.808	6.31
225.042	-7.69
225.277	2.31
225.511	-17.69
225.746	0.31
225.98	12.31
226.215	13.31
226.449	26.31
226.683	6.31
226.918	16.31
227.152	31.31
227.387	35.31
227.621	54.31
227.856	52.31
228.09	40.31
228.324	59.31
228.559	56.31
228.793	73.31
229.027	89.31
229.262	107.31
229.496	115.31
229.73	144.31
229.964	144.31
230.199	136.31
230.433	104.31
230.667	116.31
230.901	109.31
231.136	95.31
231.37	96.31
231.604	104.31
231.838	89.31
232.072	124.31
232.306	109.31
232.541	102.31
232.775	118.31
233.009	86.31
233.243	112.31
233.477	110.31
233.711	122.31
233.945	112.31
234.179	92.31
234.413	117.31
234.647	110.31
234.881	110.31
235.115	115.31
235.349	127.31
235.583	120.31
235.817	101.31
236.051	113.31
236.285	122.31
236.519	121.31
236.753	108.31
236.987	140.31
237.221	173.31
237.455	208.31
237.689	173.31
237.922	138.31
238.156	119.31
238.39	126.31
238.624	123.31
238.858	114.31
239.091	116.31
239.325	109.31
239.559	109.31
239.793	116.31
240.027	129.31
240.26	134.31
240.494	141.31
240.728	148.31
240.961	154.31
241.195	134.31
241.429	114.31
241.662	130.31
241.896	130.31
242.13	137.31
242.363	125.31
242.597	115.31
242.83	118.31
243.064	118.31
243.298	120.31
243.531	127.31
243.765	121.31
243.998	128.31
244.232	124.31
244.465	114.31
244.699	138.31
244.932	125.31
245.166	114.31
245.399	136.31
245.633	137.31
245.866	124.31
246.099	139.31
246.333	132.31
246.566	135.31
246.8	143.31
247.033	137.31
247.266	140.31
247.5	142.31
247.733	137.31
247.966	165.31
248.2	134.31
248.433	160.31
248.666	148.31
248.899	165.31
249.133	166.31
249.366	189.31
249.599	175.31
249.832	171.31
250.066	153.31
250.299	160.31
250.532	167.31
250.765	176.31
250.998	184.31
251.231	199.31
251.465	206.31
251.698	199.31
251.931	186.31
252.164	168.31
252.397	173.31
252.63	177.31
252.863	184.31
253.096	164.31
253.329	178.31
253.562	190.31
253.795	164.31
254.028	178.31
254.261	172.31
254.494	190.31
254.727	205.31
254.96	234.31
255.193	230.31
255.426	218.31
255.659	200.31
255.892	194.31
256.124	202.31
256.357	194.31
256.59	202.31
256.823	193.31
257.056	188.31
257.289	183.31
257.521	183.31
257.754	185.31
257.987	167.31
258.22	192.31
258.452	189.31
258.685	177.31
258.918	182.31
259.151	165.31
259.383	178.31
259.616	178.31
259.849	196.31
260.081	202.31
260.314	207.31
260.547	204.31
260.779	223.31
261.012	200.31
261.244	188.31
261.477	203.31
261.71	173.31
261.942	189.31
262.175	207.31
262.407	212.31
262.64	191.31
262.872	192.31
263.105	185.31
263.337	179.31
263.57	179.31
263.802	205.31
264.035	178.31
264.267	182.31
264.499	176.31
264.732	174.31
264.964	180.31
265.197	160.31
265.429	179.31
265.661	194.31
265.894	175.31
266.126	185.31
266.358	194.31
266.591	178.31
266.823	183.31
267.055	190.31
267.287	172.31
267.52	195.31
267.752	188.31
267.984	174.31
268.216	197.31
268.448	206.31
268.681	195.31
268.913	209.31
269.145	214.31
269.377	210.31
269.609	225.31
269.841	235.31
270.073	225.31
270.306	240.31
270.538	238.31
270.77	247.31
271.002	270.31
271.234	251.31
271.466	261.31
271.698	285.31
271.93	285.31
272.162	268.31
272.394	245.31
272.626	252.31
272.858	243.31
273.09	247.31
273.322	233.31
273.553	223.31
273.785	208.31
274.017	202.31
274.249	224.31
274.481	221.31
274.713	214.31
274.945	214.31
275.176	218.31
275.408	212.31
275.64	222.31
275.872	220.31
276.104	223.31
276.335	214.31
276.567	243.31
276.799	258.31
277.031	251.31
277.262	256.31
277.494	268.31
277.726	250.31
277.957	244.31
278.189	223.31
278.421	226.31
278.652	232.31
278.884	219.31
279.115	207.31
279.347	215.31
279.579	215.31
279.81	222.31
280.042	220.31
280.273	215.31
280.505	229.31
280.736	222.31
280.968	206.31
281.199	200.31
281.431	215.31
281.662	228.31
281.894	212.31
282.125	227.31
282.356	233.31
282.588	231.31
282.819	246.31
283.051	229.31
283.282	222.31
283.513	219.31
283.745	224.31
283.976	228.31
284.207	232.31
284.439	233.31
284.67	221.31
284.901	220.31
285.132	219.31
285.364	215.31
285.595	230.31
285.826	217.31
286.057	226.31
286.288	231.31
286.52	227.31
286.751	218.31
286.982	233.31
287.213	215.31
287.444	234.31
287.675	235.31
287.906	240.31
288.138	237.31
288.369	238.31
288.6	242.31
288.831	236.31
289.062	254.31
289.293	239.31
289.524	222.31
289.755	237.31
289.986	238.31
290.217	230.31
290.448	212.31
290.679	231.31
290.91	247.31
291.141	244.31
291.371	230.31
291.602	215.31
291.833	232.31
292.064	219.31
292.295	216.31
292.526	248.31
292.757	225.31
292.987	232.31
293.218	242.31
293.449	236.31
293.68	228.31
293.91	233.31
294.141	233.31
294.372	236.31
294.603	247.31
294.833	242.31
295.064	233.31
295.295	233.31
295.525	239.31
295.756	224.31
295.987	252.31
296.217	271.31
296.448	263.31
296.679	252.31
296.909	231.31
297.14	224.31
297.37	247.31
297.601	241.31
297.831	229.31
298.062	249.31
298.292	250.31
298.523	232.31
298.753	242.31
298.984	238.31
299.214	242.31
299.445	257.31
299.675	255.31
299.905	247.31
300.136	247.31
300.366	240.31
300.597	232.31
300.827	242.31
301.057	250.31
301.288	251.31
301.518	254.31
301.748	235.31
301.979	272.31
302.209	271.31
302.439	262.31
302.669	271.31
302.9	263.31
303.13	240.31
303.36	264.31
303.59	252.31
303.82	272.31
304.051	286.31
304.281	271.31
304.511	258.31
304.741	273.31
304.971	262.31
305.201	271.31
305.431	271.31
305.661	248.31
305.891	273.31
306.121	258.31
306.352	254.31
306.582	275.31
306.812	251.31
307.042	277.31
307.272	255.31
307.502	276.31
307.731	261.31
307.961	263.31
308.191	270.31
308.421	271.31
308.651	269.31
308.881	280.31
309.111	282.31
309.341	287.31
309.571	288.31
309.8	290.31
310.03	301.31
310.26	311.31
310.49	308.31
310.72	322.31
310.949	330.31
311.179	326.31
311.409	286.31
311.639	308.31
311.868	312.31
312.098	302.31
312.328	311.31
312.557	335.31
312.787	347.31
313.017	324.31
313.246	317.31
313.476	334.31
313.706	319.31
313.935	325.31
314.165	323.31
314.394	326.31
314.624	326.31
314.853	325.31
315.083	324.31
315.312	295.31
315.542	304.31
315.771	284.31
316.001	292.31
316.23	317.31
316.46	291.31
316.689	312.31
316.919	321.31
317.148	318.31
317.377	330.31
317.607	301.31
317.836	312.31
318.065	311.31
318.295	298.31
318.524	312.31
318.753	303.31
318.983	319.31
319.212	320.31
319.441	311.31
319.67	326.31
319.9	328.31
320.129	316.31
320.358	321.31
320.587	336.31
320.816	328.31
321.046	314.31
321.275	336.31
321.504	319.31
321.733	325.31
321.962	347.31
322.191	344.31
322.42	357.31
322.649	376.31
322.878	395.31
323.108	419.31
323.337	415.31
323.566	456.31
323.795	474.31
324.024	527.31
324.253	657.31
324.482	954.31
324.71	1490.31
324.939	2093.31
325.168	1788.31
325.397	893.31
325.626	609.31
325.855	496.31
326.084	489.31
326.313	436.31
326.542	462.31
326.77	494.31
326.999	609.31
327.228	863.31
327.457	1294.31
327.686	1536.31
327.914	1014.31
328.143	692.31
328.372	580.31
328.6	545.31
328.829	492.31
329.058	537.31
329.287	520.31
329.515	479.31
329.744	442.31
329.972	477.31
330.201	470.31
330.43	514.31
330.658	539.31
330.887	554.31
331.115	547.31
331.344	456.31
331.572	433.31
331.801	423.31
332.03	445.31
332.258	412.31
332.486	385.31
332.715	378.31
332.943	376.31
333.172	372.31
333.4	379.31
333.629	388.31
333.857	388.31
334.085	409.31
334.314	422.31
334.542	477.31
334.771	479.31
334.999	439.31
335.227	395.31
335.455	364.31
335.684	373.31
335.912	380.31
336.14	369.31
336.369	339.31
336.597	382.31
336.825	380.31
337.053	376.31
337.281	355.31
337.51	354.31
337.738	348.31
337.966	354.31
338.194	349.31
338.422	360.31
338.65	374.31
338.878	345.31
339.106	356.31
339.334	360.31
339.562	371.31
339.79	347.31
340.018	336.31
340.246	356.31
340.474	359.31
340.702	354.31
340.93	346.31
341.158	341.31
341.386	336.31
341.614	348.31
341.842	351.31
342.07	348.31
342.298	351.31
342.526	330.31
342.754	345.31
342.981	351.31
343.209	308.31
343.437	330.31
343.665	324.31
343.893	353.31
344.12	342.31
344.348	352.31
344.576	339.31
344.804	360.31
345.031	362.31
345.259	376.31
345.487	372.31
345.714	355.31
345.942	362.31
346.17	345.31
346.397	334.31
346.625	329.31
346.853	332.31
347.08	344.31
347.308	336.31
347.535	350.31
347.763	357.31
347.99	349.31
348.218	364.31
348.445	384.31
348.673	358.31
348.9	337.31
349.128	326.31
349.355	347.31
349.583	324.31
349.81	320.31
350.037	334.31
350.265	319.31
350.492	340.31
350.72	356.31
350.947	356.31
351.174	370.31
351.402	355.31
351.629	356.31
351.856	365.31
352.083	379.31
352.311	382.31
352.538	365.31
352.765	362.31
352.992	352.31
353.22	380.31
353.447	343.31
353.674	343.31
353.901	315.31
354.128	312.31
354.355	326.31
354.583	326.31
354.81	318.31
355.037	320.31
355.264	311.31
355.491	328.31
355.718	315.31
355.945	296.31
356.172	308.31
356.399	294.31
356.626	323.31
356.853	305.31
357.08	299.31
357.307	303.31
357.534	302.31
357.761	308.31
357.988	314.31
358.215	311.31
358.441	311.31
358.668	330.31
358.895	338.31
359.122	338.31
359.349	341.31
359.576	336.31
359.802	364.31
360.029	382.31
360.256	386.31
360.483	382.31
360.709	362.31
360.936	336.31
361.163	340.31
361.39	344.31
361.616	329.31
361.843	352.31
362.07	332.31
362.296	347.31
362.523	337.31
362.749	333.31
362.976	324.31
363.203	342.31
363.429	326.31
363.656	335.31
363.882	321.31
364.109	321.31
364.335	342.31
364.562	335.31
364.788	327.31
365.015	328.31
365.241	326.31
365.468	327.31
365.694	329.31
365.92	361.31
366.147	333.31
366.373	311.31
366.599	326.31
366.826	332.31
367.052	335.31
367.278	331.31
367.505	337.31
367.731	324.31
367.957	318.31
368.184	326.31
368.41	340.31
368.636	350.31
368.862	347.31
369.089	339.31
369.315	333.31
369.541	321.31
369.767	324.31
369.993	324.31
370.219	334.31
370.445	300.31
370.672	342.31
370.898	340.31
371.124	332.31
371.35	341.31
371.576	304.31
371.802	319.31
372.028	328.31
372.254	328.31
372.48	300.31
372.706	310.31
372.932	316.31
373.158	322.31
373.384	317.31
373.61	330.31
373.835	322.31
374.061	322.31
374.287	333.31
374.513	323.31
374.739	326.31
374.965	332.31
375.191	318.31
375.416	317.31
375.642	323.31
375.868	309.31
376.094	331.31
376.319	321.31
376.545	340.31
376.771	322.31
376.997	322.31
377.222	316.31
377.448	322.31
377.674	297.31
377.899	308.31
378.125	317.31
378.35	299.31
378.576	342.31
378.802	321.31
379.027	332.31
379.253	314.31
379.478	306.31
379.704	316.31
379.929	311.31
380.155	325.31
380.38	332.31
380.606	336.31
380.831	320.31
381.057	338.31
381.282	320.31
381.507	315.31
381.733	322.31
381.958	318.31
382.184	322.31
382.409	328.31
382.634	320.31
382.86	316.31
383.085	329.31
383.31	323.31
383.535	341.31
383.761	324.31
383.986	324.31
384.211	330.31
384.436	347.31
384.662	343.31
384.887	323.31
385.112	336.31
385.337	335.31
385.562	354.31
385.787	338.31
386.013	346.31
386.238	345.31
386.463	333.31
386.688	359.31
386.913	341.31
387.138	336.31
387.363	348.31
387.588	343.31
387.813	340.31
388.038	342.31
388.263	346.31
388.488	337.31
388.713	342.31
388.938	354.31
389.163	335.31
389.387	344.31
389.612	347.31
389.837	340.31
390.062	342.31
390.287	327.31
390.512	343.31
390.736	340.31
390.961	316.31
391.186	332.31
391.411	313.31
391.636	345.31
391.86	343.31
392.085	351.31
392.31	350.31
392.534	340.31
392.759	343.31
392.984	354.31
393.208	341.31
393.433	370.31
393.658	381.31
393.882	336.31
394.107	342.31
394.331	352.31
394.556	362.31
394.78	344.31
395.005	349.31
395.229	351.31
395.454	350.31
395.678	370.31
395.903	341.31
396.127	358.31
396.352	399.31
396.576	370.31
396.801	359.31
397.025	353.31
397.249	374.31
397.474	346.31
397.698	369.31
397.922	367.31
398.147	374.31
398.371	384.31
398.595	378.31
398.82	374.31
399.044	385.31
399.268	392.31
399.492	427.31
399.717	414.31
399.941	453.31
400.165	474.31
400.389	463.31
400.613	423.31
400.837	403.31
401.062	406.31
401.286	397.31
401.51	390.31
401.734	388.31
401.958	382.31
402.182	403.31
402.406	413.31
402.63	403.31
402.854	409.31
403.078	404.31
403.302	404.31
403.526	406.31
403.75	405.31
403.974	397.31
404.198	414.31
404.422	415.31
404.645	404.31
404.869	413.31
405.093	446.31
405.317	488.31
405.541	498.31
405.765	450.31
405.988	452.31
406.212	453.31
406.436	447.31
406.66	480.31
406.883	435.31
407.107	459.31
407.331	495.31
407.555	568.31
407.778	540.31
408.002	477.31
408.226	456.31
408.449	463.31
408.673	442.31
408.896	469.31
409.12	503.31
409.344	471.31
409.567	438.31
409.791	421.31
410.014	427.31
410.238	413.31
410.461	422.31
410.685	432.31
410.908	438.31
411.132	442.31
411.355	474.31
411.578	463.31
411.802	422.31
412.025	424.31
412.249	424.31
412.472	438.31
412.695	486.31
412.919	455.31
413.142	438.31
413.365	408.31
413.589	399.31
413.812	412.31
414.035	380.31
414.258	394.31
414.482	390.31
414.705	385.31
414.928	381.31
415.151	396.31
415.374	386.31
415.597	380.31
415.821	392.31
416.044	403.31
416.267	403.31
416.49	392.31
416.713	374.31
416.936	395.31
417.159	381.31
417.382	380.31
417.605	405.31
417.828	412.31
418.051	412.31
418.274	403.31
418.497	382.31
418.72	375.31
418.943	379.31
419.166	399.31
419.389	440.31
419.611	406.31
419.834	407.31
420.057	405.31
420.28	409.31
420.503	405.31
420.726	404.31
420.948	436.31
421.171	460.31
421.394	476.31
421.617	414.31
421.839	413.31
422.062	409.31
422.285	419.31
422.507	455.31
422.73	499.31
422.953	493.31
423.175	444.31
423.398	424.31
423.621	400.31
423.843	452.31
424.066	451.31
424.288	431.31
424.511	465.31
424.733	491.31
424.956	550.31
425.178	554.31
425.401	527.31
425.623	549.31
425.846	487.31
426.068	452.31
426.291	440.31
426.513	448.31
426.735	476.31
426.958	502.31
427.18	564.31
427.402	671.31
427.625	726.31
427.847	654.31
428.069	592.31
428.292	499.31
428.514	442.31
428.736	435.31
428.958	446.31
429.181	420.31
429.403	424.31
429.625	429.31
429.847	444.31
430.069	505.31
430.292	514.31
430.514	459.31
430.736	405.31
430.958	398.31
431.18	400.31
431.402	395.31
431.624	386.31
431.846	384.31
432.068	380.31
432.29	382.31
432.512	390.31
432.734	402.31
432.956	396.31
433.178	419.31
433.4	415.31
433.622	394.31
433.844	380.31
434.066	394.31
434.287	394.31
434.509	398.31
434.731	412.31
434.953	413.31
435.175	404.31
435.397	448.31
435.618	445.31
435.84	483.31
436.062	571.31
436.284	589.31
436.505	527.31
436.727	476.31
436.949	445.31
437.17	416.31
437.392	423.31
437.614	428.31
437.835	462.31
438.057	534.31
438.278	618.31
438.5	618.31
438.721	694.31
438.943	636.31
439.165	531.31
439.386	471.31
439.608	459.31
439.829	455.31
440.05	494.31
440.272	546.31
440.493	498.31
440.715	454.31
440.936	423.31
441.158	429.31
441.379	409.31
441.6	427.31
441.822	441.31
442.043	480.31
442.264	562.31
442.486	567.31
442.707	504.31
442.928	473.31
443.149	459.31
443.371	494.31
443.592	525.31
443.813	611.31
444.034	638.31
444.255	530.31
444.476	475.31
444.698	462.31
444.919	442.31
445.14	530.31
445.361	506.31
445.582	495.31
445.803	565.31
446.024	638.31
446.245	647.31
446.466	590.31
446.687	488.31
446.908	448.31
447.129	429.31
447.35	438.31
447.571	414.31
447.792	431.31
448.013	429.31
448.234	446.31
448.455	472.31
448.675	600.31
448.896	665.31
449.117	591.31
449.338	528.31
449.559	633.31
449.779	674.31
450	563.31
450.221	463.31
450.442	450.31
450.662	402.31
450.883	422.31
451.104	442.31
451.324	437.31
451.545	411.31
451.766	406.31
451.986	395.31
452.207	392.31
452.428	376.31
452.648	373.31
452.869	380.31
453.089	392.31
453.31	394.31
453.53	387.31
453.751	371.31
453.971	378.31
454.192	435.31
454.412	400.31
454.633	386.31
454.853	386.31
455.073	364.31
455.294	393.31
455.514	476.31
455.734	454.31
455.955	396.31
456.175	366.31
456.395	351.31
456.616	349.31
456.836	356.31
457.056	350.31
457.276	350.31
457.497	347.31
457.717	362.31
457.937	361.31
458.157	371.31
458.377	375.31
458.598	412.31
458.818	443.31
459.038	532.31
459.258	547.31
459.478	441.31
459.698	413.31
459.918	393.31
460.138	403.31
460.358	398.31
460.578	400.31
460.798	402.31
461.018	405.31
461.238	397.31
461.458	396.31
461.678	386.31
461.898	392.31
462.118	393.31
462.338	409.31
462.558	404.31
462.777	396.31
462.997	410.31
463.217	406.31
463.437	428.31
463.657	413.31
463.876	410.31
464.096	405.31
464.316	408.31
464.536	416.31
464.755	439.31
464.975	443.31
465.195	468.31
465.414	543.31
465.634	477.31
465.854	450.31
466.073	425.31
466.293	410.31
466.512	384.31
466.732	384.31
466.951	389.31
467.171	390.31
467.391	402.31
467.61	407.31
467.829	410.31
468.049	402.31
468.268	422.31
468.488	396.31
468.707	384.31
468.927	376.31
469.146	367.31
469.365	376.31
469.585	386.31
469.804	374.31
470.023	394.31
470.243	406.31
470.462	381.31
470.681	423.31
470.901	406.31
471.12	390.31
471.339	406.31
471.558	399.31
471.777	402.31
471.997	410.31
472.216	410.31
472.435	461.31
472.654	423.31
472.873	410.31
473.092	400.31
473.311	374.31
473.53	406.31
473.749	397.31
473.968	427.31
474.187	537.31
474.406	573.31
474.625	436.31
474.844	407.31
475.063	400.31
475.282	391.31
475.501	397.31
475.72	395.31
475.939	411.31
476.158	416.31
476.377	398.31
476.596	398.31
476.814	400.31
477.033	434.31
477.252	414.31
477.471	423.31
477.69	410.31
477.908	428.31
478.127	403.31
478.346	400.31
478.564	434.31
478.783	417.31
479.002	438.31
479.22	450.31
479.439	450.31
479.658	463.31
479.876	471.31
480.095	464.31
480.313	489.31
480.532	469.31
480.751	479.31
480.969	477.31
481.188	529.31
481.406	596.31
481.624	506.31
481.843	495.31
482.061	479.31
482.28	465.31
482.498	470.31
482.717	458.31
482.935	448.31
483.153	453.31
483.372	469.31
483.59	461.31
483.808	456.31
484.027	469.31
484.245	460.31
484.463	475.31
484.681	472.31
484.9	450.31
485.118	482.31
485.336	474.31
485.554	501.31
485.772	458.31
485.99	480.31
486.209	478.31
486.427	472.31
486.645	490.31
486.863	507.31
487.081	516.31
487.299	484.31
487.517	512.31
487.735	502.31
487.953	485.31
488.171	470.31
488.389	507.31
488.607	515.31
488.825	504.31
489.043	490.31
489.261	502.31
489.479	518.31
489.696	498.31
489.914	511.31
490.132	521.31
490.35	505.31
490.568	512.31
490.786	545.31
491.003	526.31
491.221	541.31
491.439	551.31
491.657	529.31
491.874	561.31
492.092	555.31
492.31	594.31
492.527	559.31
492.745	584.31
492.963	572.31
493.18	578.31
493.398	573.31
493.615	577.31
493.833	578.31
494.05	590.31
494.268	563.31
494.485	582.31
494.703	590.31
494.92	566.31
495.138	558.31
495.355	587.31
495.573	597.31
495.79	566.31
496.008	575.31
496.225	597.31
496.442	583.31
496.66	591.31
496.877	607.31
497.094	614.31
497.312	603.31
497.529	593.31
497.746	595.31
497.963	595.31
498.181	618.31
498.398	627.31
498.615	634.31
498.832	623.31
499.049	638.31
499.267	650.31
499.484	674.31
499.701	697.31
499.918	699.31
500.135	702.31
500.352	730.31
500.569	730.31
500.786	721.31
501.003	720.31
501.22	742.31
501.437	720.31
501.654	711.31
501.871	730.31
502.088	698.31
502.305	672.31
502.522	657.31
502.739	645.31
502.956	618.31
503.172	638.31
503.389	620.31
503.606	618.31
503.823	634.31
504.04	602.31
504.256	584.31
504.473	577.31
504.69	598.31
504.907	596.31
505.123	605.31
505.34	587.31
505.557	594.31
505.773	575.31
505.99	572.31
506.207	595.31
506.423	573.31
506.64	580.31
506.856	552.31
507.073	562.31
507.289	566.31
507.506	550.31
507.722	565.31
507.939	584.31
508.155	584.31
508.372	554.31
508.588	560.31
508.805	553.31
509.021	540.31
509.238	554.31
509.454	574.31
509.67	536.31
509.887	536.31
510.103	553.31
510.319	541.31
510.536	651.31
510.752	1176.31
510.968	942.31
511.184	580.31
511.401	549.31
511.617	539.31
511.833	530.31
512.049	515.31
512.265	501.31
512.481	526.31
512.698	529.31
512.914	520.31
513.13	498.31
513.346	505.31
513.562	500.31
513.778	534.31
513.994	533.31
514.21	546.31
514.426	588.31
514.642	615.31
514.858	646.31
515.074	660.31
515.29	838.31
515.506	1259.31
515.721	1025.31
515.937	664.31
516.153	604.31
516.369	589.31
516.585	555.31
516.801	535.31
517.016	535.31
517.232	536.31
517.448	532.31
517.664	515.31
517.879	517.31
518.095	558.31
518.311	538.31
518.527	529.31
518.742	526.31
518.958	491.31
519.173	534.31
519.389	516.31
519.605	526.31
519.82	519.31
520.036	550.31
520.251	579.31
520.467	578.31
520.682	595.31
520.898	613.31
521.113	633.31
521.329	676.31
521.544	781.31
521.76	991.31
521.975	1666.31
522.19	1586.31
522.406	853.31
522.621	640.31
522.836	591.31
523.052	546.31
523.267	529.31
523.482	519.31
523.698	503.31
523.913	515.31
524.128	490.31
524.343	458.31
524.559	485.31
524.774	448.31
524.989	488.31
525.204	474.31
525.419	494.31
525.634	455.31
525.849	435.31
526.064	438.31
526.28	450.31
526.495	436.31
526.71	437.31
526.925	424.31
527.14	432.31
527.355	438.31
527.57	441.31
527.785	423.31
527.999	436.31
528.214	422.31
528.429	432.31
528.644	445.31
528.859	428.31
529.074	453.31
529.289	452.31
529.503	538.31
529.718	541.31
529.933	479.31
530.148	448.31
530.363	461.31
530.577	418.31
530.792	417.31
531.007	427.31
531.221	414.31
531.436	434.31
531.651	423.31
531.865	410.31
532.08	405.31
532.295	403.31
532.509	391.31
532.724	421.31
532.938	385.31
533.153	398.31
533.367	404.31
533.582	411.31
533.796	407.31
534.011	414.31
534.225	404.31
534.44	397.31
534.654	407.31
534.868	412.31
535.083	401.31
535.297	394.31
535.511	416.31
535.726	411.31
535.94	429.31
536.154	398.31
536.369	412.31
536.583	366.31
536.797	392.31
537.011	391.31
537.225	400.31
537.44	388.31
537.654	382.31
537.868	379.31
538.082	393.31
538.296	389.31
538.51	388.31
538.724	398.31
538.938	390.31
539.153	394.31
539.367	421.31
539.581	406.31
539.795	404.31
540.009	396.31
540.222	406.31
540.436	381.31
540.65	391.31
540.864	399.31
541.078	398.31
541.292	401.31
541.506	403.31
541.72	378.31
541.934	373.31
542.147	384.31
542.361	395.31
542.575	390.31
542.789	356.31
543.002	376.31
543.216	386.31
543.43	378.31
543.644	382.31
543.857	385.31
544.071	396.31
544.285	390.31
544.498	399.31
544.712	384.31
544.925	396.31
545.139	380.31
545.352	370.31
545.566	380.31
545.779	374.31
545.993	376.31
546.206	385.31
546.42	362.31
546.633	380.31
546.847	379.31
547.06	391.31
547.274	367.31
547.487	367.31
547.7	359.31
547.914	348.31
548.127	367.31
548.34	373.31
548.554	364.31
548.767	372.31
548.98	378.31
549.193	376.31
549.407	361.31
549.62	384.31
549.833	380.31
550.046	357.31
550.259	349.31
550.473	359.31
550.686	367.31
550.899	366.31
551.112	363.31
551.325	348.31
551.538	348.31
551.751	356.31
551.964	357.31
552.177	363.31
552.39	353.31
552.603	372.31
552.816	340.31
553.029	360.31
553.242	354.31
553.455	377.31
553.667	385.31
553.88	391.31
554.093	387.31
554.306	377.31
554.519	372.31
554.732	358.31
554.944	362.31
555.157	357.31
555.37	350.31
555.583	352.31
555.795	359.31
556.008	363.31
556.221	329.31
556.433	324.31
556.646	331.31
556.859	328.31
557.071	353.31
557.284	343.31
557.496	315.31
557.709	324.31
557.921	333.31
558.134	351.31
558.346	323.31
558.559	332.31
558.771	321.31
558.984	349.31
559.196	341.31
559.409	336.31
559.621	327.31
559.833	319.31
560.046	322.31
560.258	314.31
560.47	333.31
560.683	318.31
560.895	331.31
561.107	330.31
561.32	319.31
561.532	322.31
561.744	299.31
561.956	320.31
562.168	330.31
562.381	319.31
562.593	335.31
562.805	339.31
563.017	330.31
563.229	322.31
563.441	321.31
563.653	327.31
563.865	334.31
564.077	327.31
564.289	343.31
564.501	332.31
564.713	346.31
564.925	350.31
565.137	347.31
565.349	359.31
565.561	351.31
565.773	356.31
565.985	344.31
566.197	358.31
566.408	362.31
566.62	342.31
566.832	355.31
567.044	381.31
567.255	372.31
567.467	376.31
567.679	378.31
567.891	372.31
568.102	371.31
568.314	379.31
568.526	337.31
568.737	363.31
568.949	361.31
569.161	334.31
569.372	342.31
569.584	322.31
569.795	318.31
570.007	333.31
570.218	379.31
570.43	359.31
570.641	332.31
570.853	317.31
571.064	316.31
571.276	316.31
571.487	305.31
571.698	310.31
571.91	301.31
572.121	309.31
572.333	291.31
572.544	290.31
572.755	320.31
572.966	315.31
573.178	302.31
573.389	272.31
573.6	263.31
573.811	295.31
574.023	276.31
574.234	295.31
574.445	297.31
574.656	285.31
574.867	298.31
575.078	294.31
575.289	299.31
575.501	290.31
575.712	282.31
575.923	277.31
576.134	270.31
576.345	277.31
576.556	282.31
576.767	279.31
576.978	284.31
577.188	267.31
577.399	283.31
577.61	271.31
577.821	271.31
578.032	290.31
578.243	304.31
578.454	550.31
578.665	386.31
578.875	309.31
579.086	271.31
579.297	280.31
579.508	276.31
579.718	278.31
579.929	273.31
580.14	282.31
580.35	279.31
580.561	250.31
580.772	271.31
580.982	270.31
581.193	271.31
581.403	236.31
581.614	272.31
581.825	270.31
582.035	261.31
582.246	262.31
582.456	265.31
582.667	283.31
582.877	266.31
583.087	253.31
583.298	262.31
583.508	256.31
583.719	253.31
583.929	278.31
584.139	271.31
584.35	246.31
584.56	262.31
584.77	248.31
584.981	246.31
585.191	261.31
585.401	245.31
585.611	259.31
585.821	262.31
586.032	258.31
586.242	236.31
586.452	276.31
586.662	243.31
586.872	227.31
587.082	250.31
587.292	267.31
587.502	245.31
587.713	259.31
587.923	251.31
588.133	236.31
588.343	249.31
588.553	263.31
588.762	254.31
588.972	248.31
589.182	262.31
589.392	257.31
589.602	266.31
589.812	246.31
590.022	242.31
590.232	256.31
590.441	245.31
590.651	248.31
590.861	238.31
591.071	254.31
591.281	262.31
591.49	244.31
591.7	262.31
591.91	247.31
592.119	243.31
592.329	261.31
592.539	255.31
592.748	247.31
592.958	255.31
593.167	262.31
593.377	271.31
593.587	250.31
593.796	253.31
594.006	274.31
594.215	255.31
594.424	252.31
594.634	255.31
594.843	248.31
595.053	237.31
595.262	238.31
595.472	225.31
595.681	250.31
595.89	239.31
596.1	244.31
596.309	226.31
596.518	237.31
596.727	250.31
596.937	240.31
597.146	240.31
597.355	236.31
597.564	238.31
597.774	230.31
597.983	223.31
598.192	209.31
598.401	236.31
598.61	229.31
598.819	236.31
599.028	214.31
599.237	231.31
599.446	234.31
599.655	217.31
599.864	241.31
600.073	204.31
600.282	226.31
600.491	202.31
600.7	219.31
600.909	234.31
601.118	217.31
601.327	218.31
601.536	219.31
601.745	242.31
601.953	211.31
602.162	204.31
602.371	203.31
602.58	213.31
602.789	235.31
602.997	217.31
603.206	222.31
603.415	215.31
603.623	207.31
603.832	234.31
604.041	219.31
604.249	223.31
604.458	226.31
604.666	230.31
604.875	200.31
605.084	206.31
605.292	212.31
605.501	222.31
605.709	215.31
605.918	207.31
606.126	221.31
606.334	206.31
606.543	217.31
606.751	211.31
606.96	203.31
607.168	200.31
607.376	222.31
607.585	208.31
607.793	213.31
608.001	226.31
608.21	215.31
608.418	211.31
608.626	224.31
608.834	224.31
609.043	202.31
609.251	217.31
609.459	204.31
609.667	208.31
609.875	208.31
610.083	208.31
610.291	220.31
610.499	211.31
610.707	209.31
610.916	194.31
611.124	206.31
611.332	206.31
611.54	214.31
611.748	217.31
611.955	215.31
612.163	228.31
612.371	212.31
612.579	202.31
612.787	187.31
612.995	200.31
613.203	205.31
613.411	214.31
613.618	195.31
613.826	231.31
614.034	212.31
614.242	202.31
614.449	222.31
614.657	202.31
614.865	208.31
615.072	197.31
615.28	205.31
615.488	179.31
615.695	207.31
615.903	197.31
616.111	201.31
616.318	198.31
616.526	201.31
616.733	221.31
616.941	200.31
617.148	215.31
617.356	190.31
617.563	188.31
617.771	210.31
617.978	202.31
618.185	197.31
618.393	195.31
618.6	199.31
618.807	199.31
619.015	178.31
619.222	199.31
619.429	196.31
619.637	198.31
619.844	193.31
620.051	198.31
620.258	175.31
620.466	173.31
620.673	178.31
620.88	183.31
621.087	189.31
621.294	197.31
621.501	198.31
621.708	194.31
621.915	198.31
622.122	185.31
622.329	186.31
622.536	199.31
622.743	190.31
622.95	190.31
623.157	202.31
623.364	187.31
623.571	186.31
623.778	198.31
623.985	181.31
624.192	199.31
624.399	182.31
624.606	181.31
624.812	195.31
625.019	172.31
625.226	171.31
625.433	200.31
625.639	202.31
625.846	164.31
626.053	192.31
626.259	169.31
626.466	188.31
626.673	184.31
626.879	180.31
627.086	182.31
627.293	179.31
627.499	192.31
627.706	180.31
627.912	192.31
628.119	184.31
628.325	167.31
628.532	188.31
628.738	188.31
628.945	197.31
629.151	188.31
629.357	181.31
629.564	165.31
629.77	147.31
629.976	178.31
630.183	175.31
630.389	174.31
630.595	161.31
630.802	167.31
631.008	176.31
631.214	171.31
631.42	188.31
631.627	169.31
631.833	171.31
632.039	169.31
632.245	173.31
632.451	176.31
632.657	171.31
632.863	180.31
633.069	160.31
633.275	150.31
633.481	161.31
633.688	183.31
633.893	191.31
634.099	160.31
634.305	155.31
634.511	160.31
634.717	164.31
634.923	188.31
635.129	168.31
635.335	164.31
635.541	163.31
635.747	163.31
635.952	159.31
636.158	163.31
636.364	174.31
636.57	160.31
636.775	179.31
636.981	164.31
637.187	164.31
637.392	179.31
637.598	153.31
637.804	170.31
638.009	161.31
638.215	164.31
638.421	173.31
638.626	161.31
638.832	155.31
639.037	153.31
639.243	131.31
639.448	140.31
639.654	159.31
639.859	147.31
640.065	174.31
640.27	154.31
640.475	158.31
640.681	160.31
640.886	159.31
641.091	158.31
641.297	142.31
641.502	157.31
641.707	149.31
641.913	158.31
642.118	151.31
642.323	153.31
642.528	159.31
642.733	147.31
642.939	153.31
643.144	162.31
643.349	148.31
643.554	154.31
643.759	155.31
643.964	156.31
644.169	147.31
644.374	140.31
644.579	150.31
644.784	152.31
644.989	142.31
645.194	152.31
645.399	150.31
645.604	142.31
645.809	153.31
646.014	164.31
646.219	154.31
646.423	150.31
646.628	150.31
646.833	158.31
647.038	170.31
647.243	138.31
647.447	149.31
647.652	148.31
647.857	151.31
648.062	154.31
648.266	158.31
648.471	150.31
648.676	147.31
648.88	151.31
649.085	165.31
649.289	158.31
649.494	165.31
649.698	167.31
649.903	178.31
650.107	176.31
650.312	150.31
650.516	150.31
650.721	149.31
650.925	142.31
651.13	132.31
651.334	147.31
651.539	152.31
651.743	140.31
651.947	135.31
652.152	147.31
652.356	132.31
652.56	137.31
652.764	144.31
652.969	130.31
653.173	131.31
653.377	137.31
653.581	134.31
653.785	128.31
653.99	139.31
654.194	128.31
654.398	116.31
654.602	127.31
654.806	134.31
655.01	135.31
655.214	142.31
655.418	134.31
655.622	128.31
655.826	125.31
656.03	119.31
656.234	133.31
656.438	131.31
656.642	136.31
656.846	118.31
657.049	128.31
657.253	119.31
657.457	111.31
657.661	123.31
657.865	106.31
658.068	111.31
658.272	126.31
658.476	118.31
658.68	107.31
658.883	101.31
659.087	95.31
659.291	97.31
659.494	118.31
659.698	98.31
659.901	120.31
660.105	111.31
660.309	106.31
660.512	86.31
660.716	101.31
660.919	96.31
661.123	84.31
661.326	102.31
661.53	96.31
661.733	96.31
661.936	102.31
662.14	91.31
662.343	87.31
662.546	96.31
662.75	101.31
662.953	97.31
663.156	86.31
663.36	90.31
663.563	91.31
663.766	77.31
663.969	80.31
664.173	85.31
664.376	82.31
664.579	88.31
664.782	87.31
664.985	98.31
665.188	79.31
665.391	86.31
665.594	90.31
665.797	85.31
666	86.31
666.203	102.31
666.406	90.31
666.609	85.31
666.812	81.31
667.015	85.31
667.218	83.31
667.421	84.31
667.624	91.31
667.827	91.31
668.03	75.31
668.232	73.31
668.435	86.31
668.638	86.31
668.841	94.31
669.043	71.31
669.246	77.31
669.449	96.31
669.651	85.31
669.854	76.31
670.057	84.31
670.259	89.31
670.462	94.31
670.665	91.31
670.867	74.31
671.07	91.31
671.272	89.31
671.475	99.31
671.677	78.31
671.88	81.31
672.082	78.31
672.284	100.31
672.487	92.31
672.689	89.31
672.892	84.31
