Data from 1961.PennyLincolnUp.Lamp.En5.5.200Scan.071719.P1._HRD10591_13-47-29-057.txt Node
Date: Thu Jul 18 13:47:29 EDT 2019
User: cochatt
Spectrometer: HR+D1059
Trigger mode: 1
Integration Time (sec): 1.000000E-1
Scans to average: 1
Electric dark correction enabled: true
Nonlinearity correction enabled: false
Boxcar width: 0
XAxis mode: Wavelengths
Number of Pixels in Spectrum: 2048
>>>>>Begin Spectral Data<<<<<
223.165	-17.06
223.4	-17.06
223.635	-17.06
223.869	-30.06
224.104	-14.06
224.338	-10.06
224.573	-11.06
224.808	-20.06
225.042	-7.06
225.277	-9.06
225.511	0.94
225.746	9.94
225.98	5.94
226.215	0.94
226.449	27.94
226.683	10.94
226.918	20.94
227.152	40.94
227.387	26.94
227.621	30.94
227.856	55.94
228.09	40.94
228.324	47.94
228.559	47.94
228.793	63.94
229.027	96.94
229.262	89.94
229.496	106.94
229.73	130.94
229.964	132.94
230.199	124.94
230.433	100.94
230.667	108.94
230.901	104.94
231.136	99.94
231.37	114.94
231.604	107.94
231.838	100.94
232.072	108.94
232.306	101.94
232.541	98.94
232.775	106.94
233.009	108.94
233.243	97.94
233.477	110.94
233.711	105.94
233.945	121.94
234.179	115.94
234.413	120.94
234.647	106.94
234.881	110.94
235.115	102.94
235.349	116.94
235.583	107.94
235.817	121.94
236.051	99.94
236.285	104.94
236.519	112.94
236.753	117.94
236.987	145.94
237.221	166.94
237.455	208.94
237.689	168.94
237.922	138.94
238.156	116.94
238.39	129.94
238.624	113.94
238.858	101.94
239.091	121.94
239.325	106.94
239.559	107.94
239.793	127.94
240.027	104.94
240.26	121.94
240.494	134.94
240.728	145.94
240.961	135.94
241.195	121.94
241.429	111.94
241.662	113.94
241.896	121.94
242.13	112.94
242.363	121.94
242.597	121.94
242.83	127.94
243.064	124.94
243.298	124.94
243.531	126.94
243.765	127.94
243.998	133.94
244.232	129.94
244.465	133.94
244.699	120.94
244.932	134.94
245.166	131.94
245.399	117.94
245.633	127.94
245.866	147.94
246.099	123.94
246.333	123.94
246.566	130.94
246.8	120.94
247.033	140.94
247.266	145.94
247.5	143.94
247.733	136.94
247.966	159.94
248.2	147.94
248.433	155.94
248.666	139.94
248.899	148.94
249.133	168.94
249.366	189.94
249.599	160.94
249.832	151.94
250.066	151.94
250.299	156.94
250.532	162.94
250.765	171.94
250.998	179.94
251.231	191.94
251.465	170.94
251.698	168.94
251.931	170.94
252.164	167.94
252.397	177.94
252.63	171.94
252.863	173.94
253.096	193.94
253.329	185.94
253.562	195.94
253.795	191.94
254.028	184.94
254.261	168.94
254.494	183.94
254.727	207.94
254.96	227.94
255.193	231.94
255.426	206.94
255.659	194.94
255.892	186.94
256.124	181.94
256.357	205.94
256.59	189.94
256.823	206.94
257.056	192.94
257.289	175.94
257.521	176.94
257.754	173.94
257.987	179.94
258.22	187.94
258.452	166.94
258.685	175.94
258.918	176.94
259.151	175.94
259.383	170.94
259.616	181.94
259.849	197.94
260.081	197.94
260.314	189.94
260.547	207.94
260.779	195.94
261.012	180.94
261.244	200.94
261.477	199.94
261.71	174.94
261.942	168.94
262.175	197.94
262.407	204.94
262.64	183.94
262.872	174.94
263.105	171.94
263.337	181.94
263.57	175.94
263.802	185.94
264.035	164.94
264.267	158.94
264.499	172.94
264.732	177.94
264.964	189.94
265.197	178.94
265.429	181.94
265.661	171.94
265.894	166.94
266.126	190.94
266.358	181.94
266.591	180.94
266.823	174.94
267.055	181.94
267.287	197.94
267.52	183.94
267.752	182.94
267.984	180.94
268.216	184.94
268.448	160.94
268.681	188.94
268.913	189.94
269.145	208.94
269.377	217.94
269.609	228.94
269.841	220.94
270.073	220.94
270.306	234.94
270.538	245.94
270.77	245.94
271.002	259.94
271.234	231.94
271.466	236.94
271.698	243.94
271.93	251.94
272.162	252.94
272.394	250.94
272.626	259.94
272.858	213.94
273.09	239.94
273.322	212.94
273.553	213.94
273.785	211.94
274.017	216.94
274.249	221.94
274.481	239.94
274.713	234.94
274.945	229.94
275.176	215.94
275.408	212.94
275.64	219.94
275.872	232.94
276.104	202.94
276.335	221.94
276.567	239.94
276.799	231.94
277.031	256.94
277.262	265.94
277.494	261.94
277.726	253.94
277.957	228.94
278.189	221.94
278.421	233.94
278.652	219.94
278.884	210.94
279.115	215.94
279.347	220.94
279.579	210.94
279.81	212.94
280.042	213.94
280.273	200.94
280.505	203.94
280.736	208.94
280.968	210.94
281.199	217.94
281.431	212.94
281.662	201.94
281.894	224.94
282.125	208.94
282.356	229.94
282.588	265.94
282.819	259.94
283.051	220.94
283.282	230.94
283.513	211.94
283.745	218.94
283.976	216.94
284.207	227.94
284.439	225.94
284.67	253.94
284.901	235.94
285.132	209.94
285.364	219.94
285.595	227.94
285.826	197.94
286.057	231.94
286.288	218.94
286.52	220.94
286.751	208.94
286.982	220.94
287.213	221.94
287.444	228.94
287.675	227.94
287.906	232.94
288.138	244.94
288.369	232.94
288.6	244.94
288.831	234.94
289.062	240.94
289.293	227.94
289.524	232.94
289.755	241.94
289.986	211.94
290.217	222.94
290.448	223.94
290.679	214.94
290.91	216.94
291.141	222.94
291.371	227.94
291.602	233.94
291.833	220.94
292.064	234.94
292.295	223.94
292.526	227.94
292.757	232.94
292.987	243.94
293.218	217.94
293.449	223.94
293.68	231.94
293.91	226.94
294.141	224.94
294.372	214.94
294.603	232.94
294.833	239.94
295.064	243.94
295.295	231.94
295.525	239.94
295.756	235.94
295.987	245.94
296.217	243.94
296.448	275.94
296.679	244.94
296.909	250.94
297.14	231.94
297.37	255.94
297.601	247.94
297.831	236.94
298.062	240.94
298.292	229.94
298.523	240.94
298.753	243.94
298.984	235.94
299.214	234.94
299.445	254.94
299.675	235.94
299.905	237.94
300.136	256.94
300.366	236.94
300.597	235.94
300.827	244.94
301.057	261.94
301.288	261.94
301.518	270.94
301.748	251.94
301.979	247.94
302.209	265.94
302.439	251.94
302.669	257.94
302.9	247.94
303.13	247.94
303.36	249.94
303.59	264.94
303.82	242.94
304.051	263.94
304.281	244.94
304.511	263.94
304.741	256.94
304.971	249.94
305.201	253.94
305.431	226.94
305.661	253.94
305.891	261.94
306.121	262.94
306.352	284.94
306.582	258.94
306.812	273.94
307.042	258.94
307.272	255.94
307.502	253.94
307.731	270.94
307.961	264.94
308.191	263.94
308.421	264.94
308.651	261.94
308.881	261.94
309.111	276.94
309.341	288.94
309.571	296.94
309.8	281.94
310.03	310.94
310.26	320.94
310.49	304.94
310.72	292.94
310.949	320.94
311.179	326.94
311.409	307.94
311.639	302.94
311.868	291.94
312.098	321.94
312.328	320.94
312.557	332.94
312.787	334.94
313.017	330.94
313.246	316.94
313.476	311.94
313.706	329.94
313.935	323.94
314.165	327.94
314.394	322.94
314.624	304.94
314.853	307.94
315.083	300.94
315.312	284.94
315.542	294.94
315.771	293.94
316.001	287.94
316.23	289.94
316.46	288.94
316.689	280.94
316.919	299.94
317.148	296.94
317.377	325.94
317.607	301.94
317.836	307.94
318.065	302.94
318.295	291.94
318.524	300.94
318.753	310.94
318.983	309.94
319.212	287.94
319.441	306.94
319.67	318.94
319.9	302.94
320.129	310.94
320.358	321.94
320.587	317.94
320.816	315.94
321.046	317.94
321.275	312.94
321.504	343.94
321.733	313.94
321.962	324.94
322.191	354.94
322.42	361.94
322.649	387.94
322.878	373.94
323.108	390.94
323.337	410.94
323.566	436.94
323.795	462.94
324.024	523.94
324.253	656.94
324.482	953.94
324.71	1461.94
324.939	1980.94
325.168	1675.94
325.397	881.94
325.626	613.94
325.855	501.94
326.084	440.94
326.313	442.94
326.542	436.94
326.77	470.94
326.999	569.94
327.228	821.94
327.457	1260.94
327.686	1498.94
327.914	994.94
328.143	637.94
328.372	550.94
328.6	548.94
328.829	503.94
329.058	521.94
329.287	495.94
329.515	475.94
329.744	455.94
329.972	443.94
330.201	448.94
330.43	490.94
330.658	515.94
330.887	545.94
331.115	511.94
331.344	440.94
331.572	415.94
331.801	411.94
332.03	402.94
332.258	401.94
332.486	370.94
332.715	360.94
332.943	355.94
333.172	353.94
333.4	369.94
333.629	371.94
333.857	387.94
334.085	412.94
334.314	417.94
334.542	435.94
334.771	470.94
334.999	428.94
335.227	375.94
335.455	391.94
335.684	359.94
335.912	383.94
336.14	359.94
336.369	353.94
336.597	370.94
336.825	357.94
337.053	353.94
337.281	346.94
337.51	349.94
337.738	349.94
337.966	357.94
338.194	362.94
338.422	356.94
338.65	345.94
338.878	361.94
339.106	327.94
339.334	334.94
339.562	346.94
339.79	324.94
340.018	331.94
340.246	349.94
340.474	331.94
340.702	356.94
340.93	336.94
341.158	339.94
341.386	341.94
341.614	331.94
341.842	344.94
342.07	325.94
342.298	328.94
342.526	334.94
342.754	327.94
342.981	337.94
343.209	329.94
343.437	335.94
343.665	326.94
343.893	325.94
344.12	330.94
344.348	336.94
344.576	361.94
344.804	358.94
345.031	362.94
345.259	371.94
345.487	363.94
345.714	360.94
345.942	365.94
346.17	320.94
346.397	342.94
346.625	339.94
346.853	335.94
347.08	323.94
347.308	361.94
347.535	337.94
347.763	355.94
347.99	345.94
348.218	348.94
348.445	357.94
348.673	363.94
348.9	348.94
349.128	313.94
349.355	316.94
349.583	318.94
349.81	303.94
350.037	297.94
350.265	311.94
350.492	332.94
350.72	327.94
350.947	334.94
351.174	337.94
351.402	336.94
351.629	333.94
351.856	339.94
352.083	315.94
352.311	349.94
352.538	359.94
352.765	370.94
352.992	347.94
353.22	339.94
353.447	340.94
353.674	341.94
353.901	322.94
354.128	332.94
354.355	312.94
354.583	300.94
354.81	313.94
355.037	296.94
355.264	304.94
355.491	297.94
355.718	307.94
355.945	320.94
356.172	312.94
356.399	305.94
356.626	296.94
356.853	304.94
357.08	325.94
357.307	300.94
357.534	310.94
357.761	315.94
357.988	300.94
358.215	303.94
358.441	315.94
358.668	311.94
358.895	319.94
359.122	332.94
359.349	320.94
359.576	341.94
359.802	344.94
360.029	394.94
360.256	386.94
360.483	380.94
360.709	344.94
360.936	335.94
361.163	328.94
361.39	332.94
361.616	310.94
361.843	343.94
362.07	353.94
362.296	347.94
362.523	343.94
362.749	319.94
362.976	338.94
363.203	330.94
363.429	312.94
363.656	307.94
363.882	329.94
364.109	311.94
364.335	317.94
364.562	322.94
364.788	327.94
365.015	317.94
365.241	328.94
365.468	311.94
365.694	341.94
365.92	325.94
366.147	335.94
366.373	336.94
366.599	308.94
366.826	303.94
367.052	309.94
367.278	301.94
367.505	319.94
367.731	310.94
367.957	322.94
368.184	333.94
368.41	341.94
368.636	344.94
368.862	304.94
369.089	337.94
369.315	327.94
369.541	329.94
369.767	316.94
369.993	321.94
370.219	307.94
370.445	329.94
370.672	332.94
370.898	319.94
371.124	286.94
371.35	316.94
371.576	311.94
371.802	321.94
372.028	315.94
372.254	315.94
372.48	302.94
372.706	313.94
372.932	324.94
373.158	305.94
373.384	339.94
373.61	318.94
373.835	332.94
374.061	315.94
374.287	307.94
374.513	329.94
374.739	340.94
374.965	304.94
375.191	311.94
375.416	314.94
375.642	315.94
375.868	315.94
376.094	311.94
376.319	314.94
376.545	299.94
376.771	323.94
376.997	297.94
377.222	323.94
377.448	309.94
377.674	296.94
377.899	307.94
378.125	305.94
378.35	329.94
378.576	319.94
378.802	314.94
379.027	319.94
379.253	329.94
379.478	309.94
379.704	322.94
379.929	324.94
380.155	297.94
380.38	303.94
380.606	310.94
380.831	303.94
381.057	322.94
381.282	329.94
381.507	329.94
381.733	316.94
381.958	324.94
382.184	324.94
382.409	321.94
382.634	332.94
382.86	327.94
383.085	309.94
383.31	331.94
383.535	331.94
383.761	321.94
383.986	334.94
384.211	321.94
384.436	340.94
384.662	337.94
384.887	323.94
385.112	328.94
385.337	332.94
385.562	335.94
385.787	332.94
386.013	355.94
386.238	350.94
386.463	342.94
386.688	322.94
386.913	355.94
387.138	326.94
387.363	334.94
387.588	324.94
387.813	330.94
388.038	322.94
388.263	320.94
388.488	346.94
388.713	346.94
388.938	330.94
389.163	329.94
389.387	328.94
389.612	323.94
389.837	343.94
390.062	334.94
390.287	337.94
390.512	338.94
390.736	337.94
390.961	337.94
391.186	328.94
391.411	327.94
391.636	342.94
391.86	335.94
392.085	345.94
392.31	333.94
392.534	322.94
392.759	338.94
392.984	328.94
393.208	332.94
393.433	342.94
393.658	357.94
393.882	342.94
394.107	351.94
394.331	345.94
394.556	336.94
394.78	351.94
395.005	345.94
395.229	345.94
395.454	351.94
395.678	340.94
395.903	357.94
396.127	389.94
396.352	370.94
396.576	356.94
396.801	342.94
397.025	357.94
397.249	360.94
397.474	370.94
397.698	357.94
397.922	387.94
398.147	380.94
398.371	356.94
398.595	375.94
398.82	395.94
399.044	383.94
399.268	391.94
399.492	405.94
399.717	413.94
399.941	432.94
400.165	451.94
400.389	466.94
400.613	423.94
400.837	409.94
401.062	380.94
401.286	395.94
401.51	384.94
401.734	401.94
401.958	396.94
402.182	387.94
402.406	393.94
402.63	393.94
402.854	391.94
403.078	392.94
403.302	391.94
403.526	392.94
403.75	404.94
403.974	408.94
404.198	374.94
404.422	412.94
404.645	381.94
404.869	404.94
405.093	437.94
405.317	484.94
405.541	470.94
405.765	450.94
405.988	424.94
406.212	439.94
406.436	434.94
406.66	460.94
406.883	435.94
407.107	458.94
407.331	487.94
407.555	521.94
407.778	513.94
408.002	509.94
408.226	454.94
408.449	432.94
408.673	433.94
408.896	466.94
409.12	495.94
409.344	468.94
409.567	413.94
409.791	411.94
410.014	397.94
410.238	384.94
410.461	382.94
410.685	406.94
410.908	419.94
411.132	444.94
411.355	458.94
411.578	470.94
411.802	417.94
412.025	417.94
412.249	409.94
412.472	440.94
412.695	465.94
412.919	463.94
413.142	410.94
413.365	403.94
413.589	415.94
413.812	389.94
414.035	404.94
414.258	376.94
414.482	358.94
414.705	381.94
414.928	369.94
415.151	370.94
415.374	389.94
415.597	390.94
415.821	396.94
416.044	387.94
416.267	380.94
416.49	379.94
416.713	389.94
416.936	371.94
417.159	369.94
417.382	403.94
417.605	368.94
417.828	398.94
418.051	410.94
418.274	377.94
418.497	375.94
418.72	395.94
418.943	376.94
419.166	394.94
419.389	412.94
419.611	409.94
419.834	414.94
420.057	387.94
420.28	410.94
420.503	402.94
420.726	411.94
420.948	424.94
421.171	458.94
421.394	448.94
421.617	414.94
421.839	391.94
422.062	395.94
422.285	415.94
422.507	460.94
422.73	521.94
422.953	485.94
423.175	421.94
423.398	417.94
423.621	426.94
423.843	452.94
424.066	453.94
424.288	424.94
424.511	441.94
424.733	479.94
424.956	567.94
425.178	545.94
425.401	532.94
425.623	535.94
425.846	469.94
426.068	443.94
426.291	433.94
426.513	407.94
426.735	451.94
426.958	492.94
427.18	554.94
427.402	617.94
427.625	727.94
427.847	649.94
428.069	561.94
428.292	481.94
428.514	445.94
428.736	454.94
428.958	412.94
429.181	403.94
429.403	419.94
429.625	416.94
429.847	437.94
430.069	484.94
430.292	488.94
430.514	414.94
430.736	416.94
430.958	418.94
431.18	408.94
431.402	393.94
431.624	388.94
431.846	355.94
432.068	371.94
432.29	374.94
432.512	380.94
432.734	391.94
432.956	387.94
433.178	398.94
433.4	396.94
433.622	389.94
433.844	400.94
434.066	409.94
434.287	387.94
434.509	397.94
434.731	394.94
434.953	405.94
435.175	379.94
435.397	440.94
435.618	425.94
435.84	471.94
436.062	543.94
436.284	583.94
436.505	501.94
436.727	460.94
436.949	417.94
437.17	420.94
437.392	428.94
437.614	434.94
437.835	456.94
438.057	561.94
438.278	636.94
438.5	604.94
438.721	632.94
438.943	617.94
439.165	509.94
439.386	457.94
439.608	470.94
439.829	455.94
440.05	483.94
440.272	521.94
440.493	509.94
440.715	456.94
440.936	421.94
441.158	412.94
441.379	417.94
441.6	422.94
441.822	441.94
442.043	463.94
442.264	545.94
442.486	565.94
442.707	485.94
442.928	451.94
443.149	456.94
443.371	483.94
443.592	515.94
443.813	588.94
444.034	640.94
444.255	512.94
444.476	455.94
444.698	451.94
444.919	429.94
445.14	513.94
445.361	499.94
445.582	497.94
445.803	539.94
446.024	609.94
446.245	630.94
446.466	561.94
446.687	501.94
446.908	453.94
447.129	420.94
447.35	413.94
447.571	413.94
447.792	427.94
448.013	431.94
448.234	445.94
448.455	483.94
448.675	582.94
448.896	642.94
449.117	562.94
449.338	553.94
449.559	603.94
449.779	700.94
450	542.94
450.221	463.94
450.442	431.94
450.662	417.94
450.883	431.94
451.104	439.94
451.324	422.94
451.545	410.94
451.766	390.94
451.986	376.94
452.207	376.94
452.428	384.94
452.648	389.94
452.869	377.94
453.089	357.94
453.31	388.94
453.53	383.94
453.751	373.94
453.971	391.94
454.192	379.94
454.412	407.94
454.633	385.94
454.853	397.94
455.073	387.94
455.294	394.94
455.514	442.94
455.734	442.94
455.955	388.94
456.175	330.94
456.395	338.94
456.616	353.94
456.836	351.94
457.056	340.94
457.276	347.94
457.497	337.94
457.717	374.94
457.937	367.94
458.157	331.94
458.377	367.94
458.598	394.94
458.818	447.94
459.038	512.94
459.258	505.94
459.478	425.94
459.698	413.94
459.918	391.94
460.138	363.94
460.358	383.94
460.578	363.94
460.798	389.94
461.018	377.94
461.238	378.94
461.458	389.94
461.678	371.94
461.898	355.94
462.118	378.94
462.338	386.94
462.558	410.94
462.777	379.94
462.997	403.94
463.217	404.94
463.437	397.94
463.657	404.94
463.876	398.94
464.096	386.94
464.316	409.94
464.536	396.94
464.755	397.94
464.975	412.94
465.195	469.94
465.414	547.94
465.634	477.94
465.854	440.94
466.073	406.94
466.293	392.94
466.512	413.94
466.732	397.94
466.951	386.94
467.171	371.94
467.391	386.94
467.61	412.94
467.829	409.94
468.049	391.94
468.268	399.94
468.488	384.94
468.707	393.94
468.927	375.94
469.146	369.94
469.365	360.94
469.585	356.94
469.804	372.94
470.023	393.94
470.243	388.94
470.462	415.94
470.681	415.94
470.901	397.94
471.12	389.94
471.339	379.94
471.558	403.94
471.777	401.94
471.997	393.94
472.216	390.94
472.435	422.94
472.654	418.94
472.873	403.94
473.092	385.94
473.311	380.94
473.53	374.94
473.749	380.94
473.968	434.94
474.187	524.94
474.406	521.94
474.625	437.94
474.844	409.94
475.063	377.94
475.282	386.94
475.501	383.94
475.72	388.94
475.939	388.94
476.158	416.94
476.377	392.94
476.596	406.94
476.814	416.94
477.033	419.94
477.252	440.94
477.471	419.94
477.69	404.94
477.908	412.94
478.127	425.94
478.346	407.94
478.564	426.94
478.783	437.94
479.002	430.94
479.22	431.94
479.439	444.94
479.658	460.94
479.876	450.94
480.095	479.94
480.313	501.94
480.532	461.94
480.751	456.94
480.969	495.94
481.188	529.94
481.406	603.94
481.624	515.94
481.843	483.94
482.061	464.94
482.28	436.94
482.498	459.94
482.717	431.94
482.935	439.94
483.153	470.94
483.372	457.94
483.59	471.94
483.808	442.94
484.027	448.94
484.245	454.94
484.463	466.94
484.681	473.94
484.9	473.94
485.118	476.94
485.336	466.94
485.554	460.94
485.772	475.94
485.99	461.94
486.209	460.94
486.427	447.94
486.645	461.94
486.863	491.94
487.081	511.94
487.299	515.94
487.517	501.94
487.735	487.94
487.953	489.94
488.171	471.94
488.389	488.94
488.607	484.94
488.825	495.94
489.043	487.94
489.261	479.94
489.479	481.94
489.696	490.94
489.914	492.94
490.132	489.94
490.35	518.94
490.568	496.94
490.786	498.94
491.003	514.94
491.221	539.94
491.439	523.94
491.657	524.94
491.874	543.94
492.092	536.94
492.31	556.94
492.527	569.94
492.745	545.94
492.963	553.94
493.18	575.94
493.398	557.94
493.615	564.94
493.833	569.94
494.05	567.94
494.268	577.94
494.485	577.94
494.703	570.94
494.92	577.94
495.138	585.94
495.355	583.94
495.573	574.94
495.79	564.94
496.008	583.94
496.225	548.94
496.442	575.94
496.66	576.94
496.877	560.94
497.094	591.94
497.312	564.94
497.529	577.94
497.746	603.94
497.963	611.94
498.181	616.94
498.398	637.94
498.615	614.94
498.832	635.94
499.049	625.94
499.267	647.94
499.484	664.94
499.701	677.94
499.918	664.94
500.135	678.94
500.352	705.94
500.569	738.94
500.786	737.94
501.003	720.94
501.22	717.94
501.437	711.94
501.654	684.94
501.871	688.94
502.088	692.94
502.305	653.94
502.522	635.94
502.739	624.94
502.956	631.94
503.172	604.94
503.389	607.94
503.606	602.94
503.823	599.94
504.04	612.94
504.256	603.94
504.473	579.94
504.69	575.94
504.907	588.94
505.123	552.94
505.34	562.94
505.557	540.94
505.773	565.94
505.99	555.94
506.207	586.94
506.423	570.94
506.64	536.94
506.856	539.94
507.073	541.94
507.289	536.94
507.506	564.94
507.722	550.94
507.939	561.94
508.155	540.94
508.372	538.94
508.588	525.94
508.805	518.94
509.021	522.94
509.238	540.94
509.454	538.94
509.67	529.94
509.887	536.94
510.103	533.94
510.319	556.94
510.536	650.94
510.752	1102.94
510.968	924.94
511.184	582.94
511.401	552.94
511.617	531.94
511.833	529.94
512.049	519.94
512.265	487.94
512.481	509.94
512.698	530.94
512.914	519.94
513.13	532.94
513.346	515.94
513.562	521.94
513.778	533.94
513.994	532.94
514.21	547.94
514.426	572.94
514.642	607.94
514.858	636.94
515.074	653.94
515.29	827.94
515.506	1223.94
515.721	992.94
515.937	661.94
516.153	591.94
516.369	537.94
516.585	538.94
516.801	516.94
517.016	535.94
517.232	525.94
517.448	504.94
517.664	533.94
517.879	537.94
518.095	543.94
518.311	548.94
518.527	525.94
518.742	504.94
518.958	528.94
519.173	498.94
519.389	513.94
519.605	517.94
519.82	521.94
520.036	536.94
520.251	573.94
520.467	559.94
520.682	576.94
520.898	581.94
521.113	591.94
521.329	651.94
521.544	742.94
521.76	976.94
521.975	1598.94
522.19	1571.94
522.406	845.94
522.621	623.94
522.836	584.94
523.052	526.94
523.267	494.94
523.482	477.94
523.698	474.94
523.913	496.94
524.128	502.94
524.343	486.94
524.559	458.94
524.774	456.94
524.989	449.94
525.204	472.94
525.419	445.94
525.634	457.94
525.849	452.94
526.064	449.94
526.28	437.94
526.495	441.94
526.71	421.94
526.925	417.94
527.14	428.94
527.355	437.94
527.57	409.94
527.785	411.94
527.999	438.94
528.214	411.94
528.429	408.94
528.644	408.94
528.859	407.94
529.074	398.94
529.289	424.94
529.503	517.94
529.718	528.94
529.933	462.94
530.148	427.94
530.363	412.94
530.577	420.94
530.792	401.94
531.007	412.94
531.221	422.94
531.436	420.94
531.651	401.94
531.865	412.94
532.08	404.94
532.295	396.94
532.509	396.94
532.724	397.94
532.938	401.94
533.153	403.94
533.367	380.94
533.582	400.94
533.796	389.94
534.011	397.94
534.225	392.94
534.44	387.94
534.654	394.94
534.868	401.94
535.083	384.94
535.297	405.94
535.511	404.94
535.726	423.94
535.94	433.94
536.154	393.94
536.369	416.94
536.583	402.94
536.797	389.94
537.011	391.94
537.225	377.94
537.44	379.94
537.654	374.94
537.868	390.94
538.082	381.94
538.296	386.94
538.51	368.94
538.724	385.94
538.938	399.94
539.153	394.94
539.367	401.94
539.581	387.94
539.795	397.94
540.009	386.94
540.222	395.94
540.436	385.94
540.65	385.94
540.864	389.94
541.078	387.94
541.292	385.94
541.506	400.94
541.72	392.94
541.934	388.94
542.147	384.94
542.361	357.94
542.575	385.94
542.789	381.94
543.002	382.94
543.216	377.94
543.43	369.94
543.644	386.94
543.857	377.94
544.071	390.94
544.285	383.94
544.498	364.94
544.712	385.94
544.925	370.94
545.139	379.94
545.352	373.94
545.566	367.94
545.779	379.94
545.993	361.94
546.206	358.94
546.42	359.94
546.633	352.94
546.847	351.94
547.06	357.94
547.274	352.94
547.487	359.94
547.7	359.94
547.914	351.94
548.127	346.94
548.34	348.94
548.554	347.94
548.767	364.94
548.98	367.94
549.193	367.94
549.407	342.94
549.62	340.94
549.833	364.94
550.046	355.94
550.259	353.94
550.473	339.94
550.686	364.94
550.899	362.94
551.112	364.94
551.325	355.94
551.538	343.94
551.751	351.94
551.964	345.94
552.177	341.94
552.39	341.94
552.603	348.94
552.816	347.94
553.029	347.94
553.242	357.94
553.455	368.94
553.667	373.94
553.88	368.94
554.093	372.94
554.306	355.94
554.519	359.94
554.732	348.94
554.944	348.94
555.157	343.94
555.37	349.94
555.583	337.94
555.795	341.94
556.008	345.94
556.221	340.94
556.433	352.94
556.646	329.94
556.859	329.94
557.071	338.94
557.284	327.94
557.496	324.94
557.709	321.94
557.921	334.94
558.134	321.94
558.346	329.94
558.559	317.94
558.771	329.94
558.984	333.94
559.196	321.94
559.409	322.94
559.621	319.94
559.833	316.94
560.046	316.94
560.258	308.94
560.47	312.94
560.683	322.94
560.895	314.94
561.107	315.94
561.32	319.94
561.532	323.94
561.744	318.94
561.956	317.94
562.168	328.94
562.381	323.94
562.593	344.94
562.805	323.94
563.017	329.94
563.229	315.94
563.441	318.94
563.653	323.94
563.865	301.94
564.077	347.94
564.289	333.94
564.501	333.94
564.713	320.94
564.925	334.94
565.137	343.94
565.349	341.94
565.561	332.94
565.773	329.94
565.985	358.94
566.197	332.94
566.408	361.94
566.62	342.94
566.832	357.94
567.044	369.94
567.255	370.94
567.467	355.94
567.679	367.94
567.891	377.94
568.102	366.94
568.314	349.94
568.526	365.94
568.737	344.94
568.949	334.94
569.161	336.94
569.372	311.94
569.584	317.94
569.795	315.94
570.007	317.94
570.218	359.94
570.43	367.94
570.641	311.94
570.853	308.94
571.064	311.94
571.276	306.94
571.487	292.94
571.698	306.94
571.91	306.94
572.121	306.94
572.333	297.94
572.544	299.94
572.755	292.94
572.966	307.94
573.178	309.94
573.389	291.94
573.6	290.94
573.811	293.94
574.023	268.94
574.234	285.94
574.445	278.94
574.656	294.94
574.867	276.94
575.078	270.94
575.289	285.94
575.501	275.94
575.712	271.94
575.923	277.94
576.134	281.94
576.345	282.94
576.556	277.94
576.767	285.94
576.978	272.94
577.188	277.94
577.399	282.94
577.61	257.94
577.821	283.94
578.032	259.94
578.243	296.94
578.454	518.94
578.665	389.94
578.875	289.94
579.086	274.94
579.297	268.94
579.508	284.94
579.718	281.94
579.929	261.94
580.14	266.94
580.35	260.94
580.561	268.94
580.772	268.94
580.982	260.94
581.193	257.94
581.403	263.94
581.614	248.94
581.825	244.94
582.035	252.94
582.246	266.94
582.456	255.94
582.667	253.94
582.877	267.94
583.087	247.94
583.298	239.94
583.508	244.94
583.719	259.94
583.929	249.94
584.139	260.94
584.35	256.94
584.56	256.94
584.77	244.94
584.981	245.94
585.191	227.94
585.401	257.94
585.611	246.94
585.821	246.94
586.032	252.94
586.242	229.94
586.452	250.94
586.662	259.94
586.872	247.94
587.082	231.94
587.292	234.94
587.502	243.94
587.713	243.94
587.923	259.94
588.133	233.94
588.343	249.94
588.553	242.94
588.762	252.94
588.972	248.94
589.182	253.94
589.392	250.94
589.602	226.94
589.812	257.94
590.022	245.94
590.232	235.94
590.441	232.94
590.651	239.94
590.861	255.94
591.071	272.94
591.281	246.94
591.49	248.94
591.7	252.94
591.91	258.94
592.119	234.94
592.329	239.94
592.539	254.94
592.748	249.94
592.958	262.94
593.167	238.94
593.377	259.94
593.587	257.94
593.796	244.94
594.006	250.94
594.215	251.94
594.424	229.94
594.634	239.94
594.843	241.94
595.053	233.94
595.262	230.94
595.472	223.94
595.681	230.94
595.89	242.94
596.1	233.94
596.309	218.94
596.518	235.94
596.727	231.94
596.937	243.94
597.146	230.94
597.355	228.94
597.564	224.94
597.774	216.94
597.983	204.94
598.192	223.94
598.401	208.94
598.61	225.94
598.819	224.94
599.028	231.94
599.237	233.94
599.446	209.94
599.655	211.94
599.864	210.94
600.073	241.94
600.282	219.94
600.491	210.94
600.7	211.94
600.909	224.94
601.118	222.94
601.327	220.94
601.536	200.94
601.745	216.94
601.953	188.94
602.162	215.94
602.371	219.94
602.58	218.94
602.789	204.94
602.997	214.94
603.206	237.94
603.415	216.94
603.623	213.94
603.832	211.94
604.041	201.94
604.249	215.94
604.458	213.94
604.666	209.94
604.875	219.94
605.084	205.94
605.292	217.94
605.501	202.94
605.709	215.94
605.918	217.94
606.126	210.94
606.334	220.94
606.543	205.94
606.751	215.94
606.96	197.94
607.168	210.94
607.376	201.94
607.585	218.94
607.793	202.94
608.001	208.94
608.21	196.94
608.418	202.94
608.626	208.94
608.834	218.94
609.043	187.94
609.251	205.94
609.459	205.94
609.667	223.94
609.875	212.94
610.083	210.94
610.291	209.94
610.499	207.94
610.707	222.94
610.916	212.94
611.124	201.94
611.332	203.94
611.54	218.94
611.748	209.94
611.955	210.94
612.163	202.94
612.371	211.94
612.579	198.94
612.787	195.94
612.995	200.94
613.203	203.94
613.411	191.94
613.618	198.94
613.826	196.94
614.034	199.94
614.242	189.94
614.449	201.94
614.657	200.94
614.865	200.94
615.072	201.94
615.28	197.94
615.488	205.94
615.695	209.94
615.903	200.94
616.111	204.94
616.318	212.94
616.526	213.94
616.733	203.94
616.941	194.94
617.148	204.94
617.356	203.94
617.563	199.94
617.771	192.94
617.978	204.94
618.185	199.94
618.393	200.94
618.6	192.94
618.807	190.94
619.015	210.94
619.222	196.94
619.429	186.94
619.637	191.94
619.844	184.94
620.051	187.94
620.258	197.94
620.466	185.94
620.673	197.94
620.88	192.94
621.087	173.94
621.294	177.94
621.501	197.94
621.708	201.94
621.915	187.94
622.122	194.94
622.329	189.94
622.536	183.94
622.743	206.94
622.95	181.94
623.157	175.94
623.364	178.94
623.571	181.94
623.778	179.94
623.985	199.94
624.192	182.94
624.399	166.94
624.606	178.94
624.812	191.94
625.019	188.94
625.226	188.94
625.433	166.94
625.639	179.94
625.846	191.94
626.053	183.94
626.259	172.94
626.466	189.94
626.673	175.94
626.879	181.94
627.086	183.94
627.293	172.94
627.499	179.94
627.706	174.94
627.912	169.94
628.119	172.94
628.325	192.94
628.532	192.94
628.738	194.94
628.945	168.94
629.151	173.94
629.357	180.94
629.564	186.94
629.77	169.94
629.976	202.94
630.183	159.94
630.389	172.94
630.595	187.94
630.802	173.94
631.008	173.94
631.214	180.94
631.42	162.94
631.627	169.94
631.833	181.94
632.039	155.94
632.245	161.94
632.451	171.94
632.657	162.94
632.863	176.94
633.069	157.94
633.275	169.94
633.481	182.94
633.688	153.94
633.893	175.94
634.099	174.94
634.305	165.94
634.511	151.94
634.717	178.94
634.923	167.94
635.129	160.94
635.335	154.94
635.541	165.94
635.747	156.94
635.952	163.94
636.158	148.94
636.364	183.94
636.57	155.94
636.775	167.94
636.981	157.94
637.187	169.94
637.392	169.94
637.598	172.94
637.804	159.94
638.009	159.94
638.215	158.94
638.421	170.94
638.626	140.94
638.832	155.94
639.037	143.94
639.243	155.94
639.448	171.94
639.654	161.94
639.859	159.94
640.065	148.94
640.27	161.94
640.475	160.94
640.681	157.94
640.886	147.94
641.091	163.94
641.297	159.94
641.502	153.94
641.707	139.94
641.913	155.94
642.118	152.94
642.323	151.94
642.528	144.94
642.733	157.94
642.939	151.94
643.144	162.94
643.349	153.94
643.554	160.94
643.759	141.94
643.964	134.94
644.169	147.94
644.374	141.94
644.579	151.94
644.784	147.94
644.989	152.94
645.194	148.94
645.399	144.94
645.604	143.94
645.809	159.94
646.014	151.94
646.219	161.94
646.423	154.94
646.628	139.94
646.833	134.94
647.038	157.94
647.243	145.94
647.447	159.94
647.652	145.94
647.857	142.94
648.062	139.94
648.266	151.94
648.471	145.94
648.676	136.94
648.88	148.94
649.085	151.94
649.289	141.94
649.494	140.94
649.698	182.94
649.903	179.94
650.107	171.94
650.312	151.94
650.516	139.94
650.721	140.94
650.925	151.94
651.13	138.94
651.334	131.94
651.539	119.94
651.743	135.94
651.947	125.94
652.152	153.94
652.356	128.94
652.56	131.94
652.764	136.94
652.969	127.94
653.173	132.94
653.377	140.94
653.581	137.94
653.785	127.94
653.99	127.94
654.194	139.94
654.398	125.94
654.602	119.94
654.806	126.94
655.01	127.94
655.214	120.94
655.418	127.94
655.622	128.94
655.826	131.94
656.03	131.94
656.234	117.94
656.438	123.94
656.642	127.94
656.846	117.94
657.049	115.94
657.253	115.94
657.457	101.94
657.661	125.94
657.865	124.94
658.068	115.94
658.272	115.94
658.476	96.94
658.68	110.94
658.883	99.94
659.087	88.94
659.291	110.94
659.494	103.94
659.698	92.94
659.901	99.94
660.105	104.94
660.309	96.94
660.512	90.94
660.716	79.94
660.919	77.94
661.123	97.94
661.326	80.94
661.53	88.94
661.733	91.94
661.936	94.94
662.14	91.94
662.343	85.94
662.546	95.94
662.75	98.94
662.953	83.94
663.156	84.94
663.36	89.94
663.563	83.94
663.766	82.94
663.969	91.94
664.173	74.94
664.376	82.94
664.579	73.94
664.782	76.94
664.985	78.94
665.188	90.94
665.391	84.94
665.594	81.94
665.797	93.94
666	95.94
666.203	85.94
666.406	93.94
666.609	82.94
666.812	73.94
667.015	75.94
667.218	79.94
667.421	80.94
667.624	84.94
667.827	82.94
668.03	73.94
668.232	87.94
668.435	86.94
668.638	96.94
668.841	76.94
669.043	82.94
669.246	82.94
669.449	87.94
669.651	90.94
669.854	92.94
670.057	96.94
670.259	87.94
670.462	89.94
670.665	93.94
670.867	95.94
671.07	78.94
671.272	90.94
671.475	76.94
671.677	95.94
671.88	94.94
672.082	97.94
672.284	81.94
672.487	76.94
672.689	80.94
672.892	74.94
