Data from 1961.PennyLincolnUp.Lamp.En5.5.200Scan.071719.P1._HRD10591_13-47-13-056.txt Node
Date: Thu Jul 18 13:47:13 EDT 2019
User: cochatt
Spectrometer: HR+D1059
Trigger mode: 1
Integration Time (sec): 1.000000E-1
Scans to average: 1
Electric dark correction enabled: true
Nonlinearity correction enabled: false
Boxcar width: 0
XAxis mode: Wavelengths
Number of Pixels in Spectrum: 2048
>>>>>Begin Spectral Data<<<<<
223.165	-4.25
223.4	-4.25
223.635	-4.25
223.869	-10.25
224.104	-15.25
224.338	-11.25
224.573	-16.25
224.808	-13.25
225.042	-11.25
225.277	0.75
225.511	-6.25
225.746	-0.25
225.98	0.75
226.215	11.75
226.449	10.75
226.683	6.75
226.918	20.75
227.152	36.75
227.387	45.75
227.621	42.75
227.856	39.75
228.09	57.75
228.324	50.75
228.559	58.75
228.793	67.75
229.027	78.75
229.262	94.75
229.496	118.75
229.73	122.75
229.964	154.75
230.199	116.75
230.433	121.75
230.667	106.75
230.901	101.75
231.136	96.75
231.37	100.75
231.604	111.75
231.838	107.75
232.072	100.75
232.306	99.75
232.541	103.75
232.775	112.75
233.009	117.75
233.243	115.75
233.477	103.75
233.711	118.75
233.945	126.75
234.179	90.75
234.413	103.75
234.647	107.75
234.881	98.75
235.115	104.75
235.349	105.75
235.583	96.75
235.817	104.75
236.051	111.75
236.285	103.75
236.519	112.75
236.753	116.75
236.987	138.75
237.221	165.75
237.455	180.75
237.689	155.75
237.922	129.75
238.156	124.75
238.39	126.75
238.624	109.75
238.858	123.75
239.091	108.75
239.325	103.75
239.559	108.75
239.793	117.75
240.027	126.75
240.26	132.75
240.494	122.75
240.728	123.75
240.961	130.75
241.195	130.75
241.429	130.75
241.662	120.75
241.896	124.75
242.13	127.75
242.363	119.75
242.597	114.75
242.83	130.75
243.064	135.75
243.298	122.75
243.531	111.75
243.765	124.75
243.998	118.75
244.232	116.75
244.465	136.75
244.699	123.75
244.932	136.75
245.166	121.75
245.399	150.75
245.633	138.75
245.866	127.75
246.099	116.75
246.333	125.75
246.566	128.75
246.8	111.75
247.033	150.75
247.266	127.75
247.5	131.75
247.733	142.75
247.966	135.75
248.2	149.75
248.433	147.75
248.666	135.75
248.899	151.75
249.133	164.75
249.366	168.75
249.599	163.75
249.832	156.75
250.066	156.75
250.299	152.75
250.532	154.75
250.765	165.75
250.998	173.75
251.231	187.75
251.465	165.75
251.698	167.75
251.931	157.75
252.164	167.75
252.397	168.75
252.63	166.75
252.863	170.75
253.096	178.75
253.329	177.75
253.562	186.75
253.795	187.75
254.028	178.75
254.261	175.75
254.494	174.75
254.727	212.75
254.96	220.75
255.193	228.75
255.426	194.75
255.659	183.75
255.892	198.75
256.124	180.75
256.357	196.75
256.59	189.75
256.823	184.75
257.056	169.75
257.289	186.75
257.521	176.75
257.754	187.75
257.987	176.75
258.22	171.75
258.452	167.75
258.685	156.75
258.918	175.75
259.151	167.75
259.383	185.75
259.616	194.75
259.849	175.75
260.081	196.75
260.314	196.75
260.547	219.75
260.779	188.75
261.012	184.75
261.244	185.75
261.477	182.75
261.71	187.75
261.942	195.75
262.175	192.75
262.407	171.75
262.64	171.75
262.872	189.75
263.105	171.75
263.337	172.75
263.57	179.75
263.802	163.75
264.035	171.75
264.267	175.75
264.499	180.75
264.732	170.75
264.964	164.75
265.197	187.75
265.429	178.75
265.661	184.75
265.894	169.75
266.126	180.75
266.358	175.75
266.591	176.75
266.823	189.75
267.055	190.75
267.287	171.75
267.52	170.75
267.752	198.75
267.984	188.75
268.216	182.75
268.448	182.75
268.681	190.75
268.913	202.75
269.145	213.75
269.377	226.75
269.609	212.75
269.841	184.75
270.073	215.75
270.306	222.75
270.538	252.75
270.77	261.75
271.002	238.75
271.234	225.75
271.466	214.75
271.698	245.75
271.93	244.75
272.162	258.75
272.394	255.75
272.626	242.75
272.858	247.75
273.09	226.75
273.322	228.75
273.553	209.75
273.785	217.75
274.017	211.75
274.249	203.75
274.481	190.75
274.713	216.75
274.945	205.75
275.176	210.75
275.408	223.75
275.64	210.75
275.872	220.75
276.104	218.75
276.335	204.75
276.567	203.75
276.799	213.75
277.031	222.75
277.262	266.75
277.494	254.75
277.726	224.75
277.957	220.75
278.189	227.75
278.421	213.75
278.652	216.75
278.884	214.75
279.115	217.75
279.347	211.75
279.579	198.75
279.81	203.75
280.042	214.75
280.273	211.75
280.505	217.75
280.736	211.75
280.968	220.75
281.199	222.75
281.431	229.75
281.662	219.75
281.894	204.75
282.125	231.75
282.356	228.75
282.588	230.75
282.819	237.75
283.051	228.75
283.282	236.75
283.513	237.75
283.745	220.75
283.976	229.75
284.207	216.75
284.439	212.75
284.67	232.75
284.901	224.75
285.132	225.75
285.364	212.75
285.595	214.75
285.826	208.75
286.057	218.75
286.288	221.75
286.52	211.75
286.751	214.75
286.982	222.75
287.213	220.75
287.444	228.75
287.675	218.75
287.906	223.75
288.138	228.75
288.369	246.75
288.6	242.75
288.831	221.75
289.062	239.75
289.293	226.75
289.524	235.75
289.755	208.75
289.986	230.75
290.217	228.75
290.448	219.75
290.679	221.75
290.91	221.75
291.141	215.75
291.371	221.75
291.602	225.75
291.833	219.75
292.064	227.75
292.295	223.75
292.526	222.75
292.757	232.75
292.987	222.75
293.218	226.75
293.449	212.75
293.68	227.75
293.91	230.75
294.141	231.75
294.372	213.75
294.603	229.75
294.833	220.75
295.064	236.75
295.295	219.75
295.525	212.75
295.756	230.75
295.987	232.75
296.217	255.75
296.448	269.75
296.679	252.75
296.909	228.75
297.14	239.75
297.37	243.75
297.601	228.75
297.831	234.75
298.062	237.75
298.292	217.75
298.523	237.75
298.753	240.75
298.984	224.75
299.214	245.75
299.445	239.75
299.675	254.75
299.905	235.75
300.136	252.75
300.366	229.75
300.597	239.75
300.827	257.75
301.057	226.75
301.288	260.75
301.518	249.75
301.748	247.75
301.979	254.75
302.209	239.75
302.439	250.75
302.669	231.75
302.9	253.75
303.13	254.75
303.36	257.75
303.59	256.75
303.82	253.75
304.051	254.75
304.281	262.75
304.511	258.75
304.741	270.75
304.971	265.75
305.201	249.75
305.431	250.75
305.661	259.75
305.891	260.75
306.121	236.75
306.352	265.75
306.582	269.75
306.812	264.75
307.042	269.75
307.272	263.75
307.502	263.75
307.731	260.75
307.961	251.75
308.191	229.75
308.421	270.75
308.651	266.75
308.881	250.75
309.111	269.75
309.341	255.75
309.571	274.75
309.8	286.75
310.03	304.75
310.26	310.75
310.49	305.75
310.72	293.75
310.949	307.75
311.179	336.75
311.409	318.75
311.639	276.75
311.868	291.75
312.098	296.75
312.328	299.75
312.557	318.75
312.787	315.75
313.017	322.75
313.246	302.75
313.476	298.75
313.706	311.75
313.935	300.75
314.165	298.75
314.394	315.75
314.624	326.75
314.853	323.75
315.083	319.75
315.312	300.75
315.542	298.75
315.771	298.75
316.001	283.75
316.23	277.75
316.46	289.75
316.689	292.75
316.919	307.75
317.148	301.75
317.377	310.75
317.607	315.75
317.836	314.75
318.065	307.75
318.295	308.75
318.524	296.75
318.753	296.75
318.983	302.75
319.212	282.75
319.441	302.75
319.67	291.75
319.9	316.75
320.129	280.75
320.358	285.75
320.587	296.75
320.816	297.75
321.046	312.75
321.275	321.75
321.504	315.75
321.733	325.75
321.962	344.75
322.191	343.75
322.42	376.75
322.649	354.75
322.878	360.75
323.108	372.75
323.337	394.75
323.566	404.75
323.795	452.75
324.024	519.75
324.253	618.75
324.482	903.75
324.71	1381.75
324.939	1940.75
325.168	1617.75
325.397	874.75
325.626	556.75
325.855	471.75
326.084	440.75
326.313	425.75
326.542	438.75
326.77	485.75
326.999	602.75
327.228	812.75
327.457	1206.75
327.686	1406.75
327.914	981.75
328.143	638.75
328.372	568.75
328.6	518.75
328.829	482.75
329.058	484.75
329.287	491.75
329.515	456.75
329.744	439.75
329.972	429.75
330.201	442.75
330.43	496.75
330.658	498.75
330.887	503.75
331.115	513.75
331.344	413.75
331.572	405.75
331.801	399.75
332.03	405.75
332.258	364.75
332.486	370.75
332.715	343.75
332.943	370.75
333.172	355.75
333.4	346.75
333.629	359.75
333.857	366.75
334.085	384.75
334.314	422.75
334.542	436.75
334.771	457.75
334.999	408.75
335.227	375.75
335.455	351.75
335.684	353.75
335.912	373.75
336.14	334.75
336.369	351.75
336.597	365.75
336.825	360.75
337.053	344.75
337.281	342.75
337.51	336.75
337.738	344.75
337.966	329.75
338.194	322.75
338.422	342.75
338.65	337.75
338.878	336.75
339.106	314.75
339.334	323.75
339.562	316.75
339.79	334.75
340.018	321.75
340.246	351.75
340.474	334.75
340.702	344.75
340.93	345.75
341.158	349.75
341.386	332.75
341.614	342.75
341.842	329.75
342.07	330.75
342.298	332.75
342.526	325.75
342.754	328.75
342.981	320.75
343.209	307.75
343.437	322.75
343.665	335.75
343.893	320.75
344.12	358.75
344.348	331.75
344.576	335.75
344.804	341.75
345.031	372.75
345.259	372.75
345.487	345.75
345.714	326.75
345.942	324.75
346.17	343.75
346.397	321.75
346.625	332.75
346.853	314.75
347.08	332.75
347.308	332.75
347.535	331.75
347.763	356.75
347.99	333.75
348.218	333.75
348.445	348.75
348.673	341.75
348.9	323.75
349.128	322.75
349.355	294.75
349.583	318.75
349.81	331.75
350.037	315.75
350.265	298.75
350.492	310.75
350.72	316.75
350.947	318.75
351.174	330.75
351.402	331.75
351.629	333.75
351.856	336.75
352.083	340.75
352.311	341.75
352.538	355.75
352.765	350.75
352.992	339.75
353.22	311.75
353.447	329.75
353.674	334.75
353.901	314.75
354.128	309.75
354.355	313.75
354.583	333.75
354.81	310.75
355.037	285.75
355.264	318.75
355.491	292.75
355.718	272.75
355.945	303.75
356.172	306.75
356.399	295.75
356.626	306.75
356.853	296.75
357.08	291.75
357.307	296.75
357.534	289.75
357.761	309.75
357.988	299.75
358.215	316.75
358.441	312.75
358.668	300.75
358.895	314.75
359.122	307.75
359.349	322.75
359.576	337.75
359.802	362.75
360.029	377.75
360.256	382.75
360.483	368.75
360.709	344.75
360.936	330.75
361.163	341.75
361.39	342.75
361.616	354.75
361.843	334.75
362.07	336.75
362.296	337.75
362.523	341.75
362.749	333.75
362.976	327.75
363.203	303.75
363.429	330.75
363.656	313.75
363.882	325.75
364.109	304.75
364.335	298.75
364.562	306.75
364.788	324.75
365.015	325.75
365.241	316.75
365.468	322.75
365.694	331.75
365.92	334.75
366.147	311.75
366.373	311.75
366.599	319.75
366.826	318.75
367.052	296.75
367.278	318.75
367.505	326.75
367.731	316.75
367.957	296.75
368.184	325.75
368.41	313.75
368.636	310.75
368.862	321.75
369.089	328.75
369.315	311.75
369.541	285.75
369.767	327.75
369.993	304.75
370.219	320.75
370.445	308.75
370.672	300.75
370.898	306.75
371.124	295.75
371.35	306.75
371.576	309.75
371.802	322.75
372.028	291.75
372.254	311.75
372.48	302.75
372.706	326.75
372.932	299.75
373.158	296.75
373.384	325.75
373.61	310.75
373.835	322.75
374.061	298.75
374.287	311.75
374.513	314.75
374.739	304.75
374.965	322.75
375.191	312.75
375.416	308.75
375.642	321.75
375.868	292.75
376.094	316.75
376.319	293.75
376.545	314.75
376.771	317.75
376.997	295.75
377.222	311.75
377.448	294.75
377.674	295.75
377.899	304.75
378.125	295.75
378.35	314.75
378.576	295.75
378.802	313.75
379.027	294.75
379.253	300.75
379.478	310.75
379.704	314.75
379.929	310.75
380.155	301.75
380.38	323.75
380.606	312.75
380.831	303.75
381.057	300.75
381.282	315.75
381.507	310.75
381.733	299.75
381.958	309.75
382.184	304.75
382.409	316.75
382.634	305.75
382.86	332.75
383.085	309.75
383.31	329.75
383.535	322.75
383.761	319.75
383.986	319.75
384.211	323.75
384.436	337.75
384.662	317.75
384.887	337.75
385.112	329.75
385.337	312.75
385.562	336.75
385.787	319.75
386.013	350.75
386.238	326.75
386.463	345.75
386.688	334.75
386.913	314.75
387.138	313.75
387.363	320.75
387.588	326.75
387.813	326.75
388.038	334.75
388.263	319.75
388.488	355.75
388.713	333.75
388.938	354.75
389.163	331.75
389.387	328.75
389.612	332.75
389.837	328.75
390.062	318.75
390.287	316.75
390.512	308.75
390.736	327.75
390.961	326.75
391.186	330.75
391.411	324.75
391.636	349.75
391.86	320.75
392.085	323.75
392.31	329.75
392.534	318.75
392.759	333.75
392.984	343.75
393.208	320.75
393.433	343.75
393.658	332.75
393.882	339.75
394.107	339.75
394.331	353.75
394.556	324.75
394.78	335.75
395.005	323.75
395.229	341.75
395.454	334.75
395.678	333.75
395.903	362.75
396.127	370.75
396.352	366.75
396.576	347.75
396.801	342.75
397.025	343.75
397.249	341.75
397.474	358.75
397.698	351.75
397.922	376.75
398.147	372.75
398.371	392.75
398.595	365.75
398.82	371.75
399.044	362.75
399.268	388.75
399.492	386.75
399.717	408.75
399.941	443.75
400.165	461.75
400.389	467.75
400.613	406.75
400.837	394.75
401.062	388.75
401.286	375.75
401.51	376.75
401.734	384.75
401.958	379.75
402.182	373.75
402.406	406.75
402.63	378.75
402.854	409.75
403.078	371.75
403.302	395.75
403.526	404.75
403.75	402.75
403.974	400.75
404.198	380.75
404.422	391.75
404.645	407.75
404.869	398.75
405.093	432.75
405.317	470.75
405.541	474.75
405.765	438.75
405.988	410.75
406.212	445.75
406.436	440.75
406.66	444.75
406.883	428.75
407.107	440.75
407.331	463.75
407.555	521.75
407.778	514.75
408.002	475.75
408.226	444.75
408.449	441.75
408.673	418.75
408.896	450.75
409.12	461.75
409.344	445.75
409.567	431.75
409.791	416.75
410.014	410.75
410.238	405.75
410.461	389.75
410.685	395.75
410.908	393.75
411.132	444.75
411.355	470.75
411.578	422.75
411.802	418.75
412.025	382.75
412.249	416.75
412.472	410.75
412.695	442.75
412.919	434.75
413.142	412.75
413.365	376.75
413.589	382.75
413.812	391.75
414.035	381.75
414.258	384.75
414.482	377.75
414.705	379.75
414.928	356.75
415.151	384.75
415.374	366.75
415.597	373.75
415.821	362.75
416.044	362.75
416.267	378.75
416.49	364.75
416.713	362.75
416.936	384.75
417.159	358.75
417.382	354.75
417.605	370.75
417.828	392.75
418.051	386.75
418.274	379.75
418.497	358.75
418.72	392.75
418.943	390.75
419.166	386.75
419.389	399.75
419.611	403.75
419.834	394.75
420.057	384.75
420.28	401.75
420.503	410.75
420.726	392.75
420.948	408.75
421.171	462.75
421.394	455.75
421.617	418.75
421.839	389.75
422.062	392.75
422.285	397.75
422.507	452.75
422.73	522.75
422.953	482.75
423.175	426.75
423.398	414.75
423.621	408.75
423.843	438.75
424.066	418.75
424.288	446.75
424.511	419.75
424.733	488.75
424.956	534.75
425.178	519.75
425.401	532.75
425.623	535.75
425.846	457.75
426.068	436.75
426.291	446.75
426.513	425.75
426.735	422.75
426.958	464.75
427.18	541.75
427.402	634.75
427.625	697.75
427.847	635.75
428.069	539.75
428.292	483.75
428.514	448.75
428.736	426.75
428.958	412.75
429.181	419.75
429.403	407.75
429.625	423.75
429.847	450.75
430.069	465.75
430.292	483.75
430.514	430.75
430.736	394.75
430.958	405.75
431.18	384.75
431.402	410.75
431.624	383.75
431.846	372.75
432.068	372.75
432.29	370.75
432.512	368.75
432.734	384.75
432.956	394.75
433.178	403.75
433.4	396.75
433.622	371.75
433.844	381.75
434.066	366.75
434.287	369.75
434.509	376.75
434.731	377.75
434.953	380.75
435.175	389.75
435.397	408.75
435.618	440.75
435.84	468.75
436.062	540.75
436.284	600.75
436.505	492.75
436.727	436.75
436.949	406.75
437.17	406.75
437.392	395.75
437.614	414.75
437.835	466.75
438.057	514.75
438.278	611.75
438.5	590.75
438.721	648.75
438.943	591.75
439.165	491.75
439.386	470.75
439.608	475.75
439.829	468.75
440.05	482.75
440.272	486.75
440.493	484.75
440.715	429.75
440.936	410.75
441.158	398.75
441.379	411.75
441.6	419.75
441.822	438.75
442.043	452.75
442.264	528.75
442.486	550.75
442.707	460.75
442.928	456.75
443.149	466.75
443.371	464.75
443.592	520.75
443.813	599.75
444.034	610.75
444.255	501.75
444.476	451.75
444.698	441.75
444.919	434.75
445.14	519.75
445.361	474.75
445.582	487.75
445.803	541.75
446.024	624.75
446.245	642.75
446.466	552.75
446.687	494.75
446.908	458.75
447.129	423.75
447.35	423.75
447.571	406.75
447.792	404.75
448.013	412.75
448.234	424.75
448.455	479.75
448.675	564.75
448.896	636.75
449.117	559.75
449.338	516.75
449.559	597.75
449.779	658.75
450	548.75
450.221	449.75
450.442	424.75
450.662	399.75
450.883	416.75
451.104	423.75
451.324	391.75
451.545	382.75
451.766	387.75
451.986	380.75
452.207	371.75
452.428	379.75
452.648	362.75
452.869	355.75
453.089	367.75
453.31	394.75
453.53	399.75
453.751	356.75
453.971	374.75
454.192	377.75
454.412	400.75
454.633	382.75
454.853	367.75
455.073	369.75
455.294	389.75
455.514	455.75
455.734	441.75
455.955	377.75
456.175	371.75
456.395	334.75
456.616	347.75
456.836	338.75
457.056	354.75
457.276	335.75
457.497	335.75
457.717	359.75
457.937	347.75
458.157	340.75
458.377	349.75
458.598	387.75
458.818	446.75
459.038	510.75
459.258	517.75
459.478	427.75
459.698	382.75
459.918	383.75
460.138	373.75
460.358	373.75
460.578	383.75
460.798	392.75
461.018	397.75
461.238	376.75
461.458	375.75
461.678	360.75
461.898	390.75
462.118	374.75
462.338	387.75
462.558	392.75
462.777	391.75
462.997	388.75
463.217	395.75
463.437	385.75
463.657	399.75
463.876	412.75
464.096	428.75
464.316	419.75
464.536	422.75
464.755	400.75
464.975	431.75
465.195	466.75
465.414	534.75
465.634	464.75
465.854	424.75
466.073	428.75
466.293	382.75
466.512	384.75
466.732	375.75
466.951	380.75
467.171	371.75
467.391	374.75
467.61	376.75
467.829	395.75
468.049	384.75
468.268	395.75
468.488	382.75
468.707	374.75
468.927	360.75
469.146	361.75
469.365	372.75
469.585	365.75
469.804	366.75
470.023	386.75
470.243	366.75
470.462	398.75
470.681	416.75
470.901	402.75
471.12	386.75
471.339	387.75
471.558	370.75
471.777	380.75
471.997	377.75
472.216	379.75
472.435	422.75
472.654	408.75
472.873	379.75
473.092	381.75
473.311	378.75
473.53	384.75
473.749	394.75
473.968	451.75
474.187	470.75
474.406	508.75
474.625	463.75
474.844	403.75
475.063	391.75
475.282	384.75
475.501	398.75
475.72	417.75
475.939	392.75
476.158	385.75
476.377	404.75
476.596	388.75
476.814	374.75
477.033	390.75
477.252	397.75
477.471	410.75
477.69	388.75
477.908	417.75
478.127	390.75
478.346	410.75
478.564	412.75
478.783	406.75
479.002	430.75
479.22	409.75
479.439	442.75
479.658	461.75
479.876	464.75
480.095	456.75
480.313	460.75
480.532	442.75
480.751	442.75
480.969	474.75
481.188	522.75
481.406	570.75
481.624	521.75
481.843	471.75
482.061	458.75
482.28	442.75
482.498	438.75
482.717	454.75
482.935	445.75
483.153	430.75
483.372	460.75
483.59	431.75
483.808	447.75
484.027	438.75
484.245	456.75
484.463	434.75
484.681	450.75
484.9	462.75
485.118	479.75
485.336	457.75
485.554	444.75
485.772	438.75
485.99	460.75
486.209	475.75
486.427	470.75
486.645	479.75
486.863	491.75
487.081	485.75
487.299	454.75
487.517	491.75
487.735	471.75
487.953	472.75
488.171	476.75
488.389	471.75
488.607	480.75
488.825	474.75
489.043	466.75
489.261	495.75
489.479	488.75
489.696	498.75
489.914	477.75
490.132	498.75
490.35	500.75
490.568	486.75
490.786	530.75
491.003	500.75
491.221	512.75
491.439	524.75
491.657	510.75
491.874	526.75
492.092	528.75
492.31	541.75
492.527	565.75
492.745	540.75
492.963	538.75
493.18	542.75
493.398	556.75
493.615	557.75
493.833	558.75
494.05	543.75
494.268	560.75
494.485	546.75
494.703	551.75
494.92	548.75
495.138	573.75
495.355	568.75
495.573	556.75
495.79	557.75
496.008	534.75
496.225	585.75
496.442	586.75
496.66	569.75
496.877	559.75
497.094	605.75
497.312	580.75
497.529	568.75
497.746	600.75
497.963	603.75
498.181	607.75
498.398	599.75
498.615	600.75
498.832	614.75
499.049	621.75
499.267	615.75
499.484	630.75
499.701	665.75
499.918	663.75
500.135	674.75
500.352	718.75
500.569	678.75
500.786	696.75
501.003	685.75
501.22	696.75
501.437	692.75
501.654	663.75
501.871	716.75
502.088	671.75
502.305	662.75
502.522	650.75
502.739	626.75
502.956	601.75
503.172	609.75
503.389	609.75
503.606	591.75
503.823	576.75
504.04	580.75
504.256	562.75
504.473	569.75
504.69	564.75
504.907	583.75
505.123	556.75
505.34	554.75
505.557	559.75
505.773	550.75
505.99	558.75
506.207	534.75
506.423	548.75
506.64	532.75
506.856	518.75
507.073	551.75
507.289	540.75
507.506	524.75
507.722	540.75
507.939	542.75
508.155	550.75
508.372	528.75
508.588	533.75
508.805	509.75
509.021	546.75
509.238	536.75
509.454	537.75
509.67	532.75
509.887	517.75
510.103	534.75
510.319	549.75
510.536	640.75
510.752	1099.75
510.968	883.75
511.184	574.75
511.401	511.75
511.617	495.75
511.833	503.75
512.049	533.75
512.265	489.75
512.481	508.75
512.698	486.75
512.914	498.75
513.13	512.75
513.346	506.75
513.562	508.75
513.778	513.75
513.994	525.75
514.21	522.75
514.426	537.75
514.642	609.75
514.858	611.75
515.074	637.75
515.29	808.75
515.506	1167.75
515.721	962.75
515.937	645.75
516.153	567.75
516.369	558.75
516.585	556.75
516.801	536.75
517.016	507.75
517.232	520.75
517.448	494.75
517.664	523.75
517.879	505.75
518.095	471.75
518.311	512.75
518.527	514.75
518.742	521.75
518.958	524.75
519.173	497.75
519.389	516.75
519.605	506.75
519.82	506.75
520.036	520.75
520.251	553.75
520.467	564.75
520.682	580.75
520.898	579.75
521.113	595.75
521.329	644.75
521.544	707.75
521.76	967.75
521.975	1570.75
522.19	1551.75
522.406	824.75
522.621	599.75
522.836	553.75
523.052	524.75
523.267	523.75
523.482	494.75
523.698	464.75
523.913	488.75
524.128	465.75
524.343	473.75
524.559	445.75
524.774	450.75
524.989	443.75
525.204	452.75
525.419	470.75
525.634	430.75
525.849	456.75
526.064	437.75
526.28	431.75
526.495	439.75
526.71	416.75
526.925	431.75
527.14	413.75
527.355	420.75
527.57	398.75
527.785	437.75
527.999	406.75
528.214	418.75
528.429	405.75
528.644	408.75
528.859	425.75
529.074	448.75
529.289	423.75
529.503	516.75
529.718	490.75
529.933	448.75
530.148	434.75
530.363	436.75
530.577	406.75
530.792	407.75
531.007	410.75
531.221	418.75
531.436	404.75
531.651	387.75
531.865	384.75
532.08	404.75
532.295	384.75
532.509	378.75
532.724	385.75
532.938	408.75
533.153	392.75
533.367	386.75
533.582	387.75
533.796	417.75
534.011	379.75
534.225	381.75
534.44	374.75
534.654	389.75
534.868	371.75
535.083	392.75
535.297	395.75
535.511	382.75
535.726	392.75
535.94	386.75
536.154	406.75
536.369	384.75
536.583	390.75
536.797	386.75
537.011	378.75
537.225	377.75
537.44	364.75
537.654	373.75
537.868	390.75
538.082	382.75
538.296	377.75
538.51	376.75
538.724	390.75
538.938	361.75
539.153	368.75
539.367	395.75
539.581	392.75
539.795	371.75
540.009	386.75
540.222	379.75
540.436	379.75
540.65	385.75
540.864	383.75
541.078	372.75
541.292	386.75
541.506	376.75
541.72	367.75
541.934	376.75
542.147	340.75
542.361	384.75
542.575	382.75
542.789	358.75
543.002	378.75
543.216	370.75
543.43	415.75
543.644	384.75
543.857	366.75
544.071	364.75
544.285	375.75
544.498	372.75
544.712	373.75
544.925	376.75
545.139	361.75
545.352	359.75
545.566	344.75
545.779	366.75
545.993	360.75
546.206	388.75
546.42	365.75
546.633	357.75
546.847	356.75
547.06	356.75
547.274	360.75
547.487	372.75
547.7	334.75
547.914	342.75
548.127	361.75
548.34	359.75
548.554	341.75
548.767	358.75
548.98	344.75
549.193	351.75
549.407	356.75
549.62	334.75
549.833	339.75
550.046	338.75
550.259	335.75
550.473	351.75
550.686	346.75
550.899	344.75
551.112	345.75
551.325	342.75
551.538	352.75
551.751	352.75
551.964	345.75
552.177	339.75
552.39	339.75
552.603	334.75
552.816	341.75
553.029	343.75
553.242	365.75
553.455	359.75
553.667	362.75
553.88	354.75
554.093	358.75
554.306	356.75
554.519	324.75
554.732	358.75
554.944	339.75
555.157	332.75
555.37	349.75
555.583	347.75
555.795	344.75
556.008	333.75
556.221	331.75
556.433	332.75
556.646	320.75
556.859	328.75
557.071	306.75
557.284	334.75
557.496	322.75
557.709	325.75
557.921	322.75
558.134	317.75
558.346	319.75
558.559	323.75
558.771	323.75
558.984	317.75
559.196	320.75
559.409	342.75
559.621	326.75
559.833	320.75
560.046	318.75
560.258	307.75
560.47	310.75
560.683	314.75
560.895	336.75
561.107	311.75
561.32	299.75
561.532	315.75
561.744	328.75
561.956	301.75
562.168	328.75
562.381	319.75
562.593	330.75
562.805	317.75
563.017	329.75
563.229	306.75
563.441	320.75
563.653	307.75
563.865	299.75
564.077	327.75
564.289	328.75
564.501	327.75
564.713	322.75
564.925	328.75
565.137	337.75
565.349	318.75
565.561	322.75
565.773	346.75
565.985	339.75
566.197	336.75
566.408	332.75
566.62	344.75
566.832	349.75
567.044	348.75
567.255	355.75
567.467	369.75
567.679	359.75
567.891	368.75
568.102	376.75
568.314	350.75
568.526	361.75
568.737	367.75
568.949	319.75
569.161	334.75
569.372	322.75
569.584	353.75
569.795	336.75
570.007	326.75
570.218	366.75
570.43	345.75
570.641	313.75
570.853	295.75
571.064	316.75
571.276	302.75
571.487	308.75
571.698	306.75
571.91	291.75
572.121	294.75
572.333	279.75
572.544	268.75
572.755	294.75
572.966	282.75
573.178	281.75
573.389	275.75
573.6	293.75
573.811	300.75
574.023	295.75
574.234	288.75
574.445	293.75
574.656	291.75
574.867	279.75
575.078	278.75
575.289	258.75
575.501	276.75
575.712	266.75
575.923	270.75
576.134	274.75
576.345	280.75
576.556	260.75
576.767	288.75
576.978	275.75
577.188	269.75
577.399	280.75
577.61	271.75
577.821	266.75
578.032	281.75
578.243	308.75
578.454	504.75
578.665	373.75
578.875	295.75
579.086	264.75
579.297	252.75
579.508	246.75
579.718	268.75
579.929	251.75
580.14	256.75
580.35	287.75
580.561	260.75
580.772	260.75
580.982	266.75
581.193	270.75
581.403	263.75
581.614	265.75
581.825	273.75
582.035	240.75
582.246	251.75
582.456	253.75
582.667	251.75
582.877	266.75
583.087	253.75
583.298	255.75
583.508	244.75
583.719	247.75
583.929	258.75
584.139	259.75
584.35	239.75
584.56	236.75
584.77	248.75
584.981	263.75
585.191	260.75
585.401	239.75
585.611	243.75
585.821	249.75
586.032	249.75
586.242	243.75
586.452	229.75
586.662	255.75
586.872	246.75
587.082	240.75
587.292	233.75
587.502	242.75
587.713	254.75
587.923	236.75
588.133	236.75
588.343	261.75
588.553	254.75
588.762	243.75
588.972	249.75
589.182	260.75
589.392	253.75
589.602	238.75
589.812	237.75
590.022	244.75
590.232	238.75
590.441	259.75
590.651	253.75
590.861	248.75
591.071	236.75
591.281	238.75
591.49	245.75
591.7	258.75
591.91	246.75
592.119	237.75
592.329	245.75
592.539	247.75
592.748	254.75
592.958	235.75
593.167	248.75
593.377	239.75
593.587	256.75
593.796	241.75
594.006	244.75
594.215	251.75
594.424	251.75
594.634	254.75
594.843	252.75
595.053	258.75
595.262	227.75
595.472	227.75
595.681	247.75
595.89	242.75
596.1	228.75
596.309	231.75
596.518	236.75
596.727	228.75
596.937	227.75
597.146	225.75
597.355	227.75
597.564	214.75
597.774	226.75
597.983	214.75
598.192	208.75
598.401	244.75
598.61	237.75
598.819	209.75
599.028	221.75
599.237	219.75
599.446	204.75
599.655	215.75
599.864	221.75
600.073	217.75
600.282	226.75
600.491	221.75
600.7	211.75
600.909	225.75
601.118	219.75
601.327	218.75
601.536	226.75
601.745	215.75
601.953	206.75
602.162	218.75
602.371	209.75
602.58	219.75
602.789	219.75
602.997	201.75
603.206	217.75
603.415	203.75
603.623	214.75
603.832	220.75
604.041	215.75
604.249	210.75
604.458	219.75
604.666	208.75
604.875	206.75
605.084	203.75
605.292	211.75
605.501	217.75
605.709	196.75
605.918	209.75
606.126	217.75
606.334	200.75
606.543	194.75
606.751	223.75
606.96	199.75
607.168	196.75
607.376	200.75
607.585	213.75
607.793	219.75
608.001	223.75
608.21	211.75
608.418	186.75
608.626	194.75
608.834	199.75
609.043	212.75
609.251	200.75
609.459	195.75
609.667	204.75
609.875	211.75
610.083	190.75
610.291	212.75
610.499	198.75
610.707	200.75
610.916	227.75
611.124	195.75
611.332	206.75
611.54	218.75
611.748	211.75
611.955	216.75
612.163	198.75
612.371	199.75
612.579	186.75
612.787	200.75
612.995	198.75
613.203	214.75
613.411	178.75
613.618	201.75
613.826	206.75
614.034	192.75
614.242	214.75
614.449	204.75
614.657	201.75
614.865	177.75
615.072	191.75
615.28	190.75
615.488	204.75
615.695	208.75
615.903	209.75
616.111	203.75
616.318	205.75
616.526	211.75
616.733	192.75
616.941	189.75
617.148	195.75
617.356	213.75
617.563	196.75
617.771	198.75
617.978	183.75
618.185	202.75
618.393	200.75
618.6	179.75
618.807	194.75
619.015	196.75
619.222	194.75
619.429	201.75
619.637	194.75
619.844	196.75
620.051	207.75
620.258	190.75
620.466	194.75
620.673	197.75
620.88	175.75
621.087	202.75
621.294	218.75
621.501	184.75
621.708	192.75
621.915	191.75
622.122	192.75
622.329	192.75
622.536	196.75
622.743	169.75
622.95	184.75
623.157	191.75
623.364	187.75
623.571	197.75
623.778	174.75
623.985	180.75
624.192	176.75
624.399	183.75
624.606	178.75
624.812	221.75
625.019	188.75
625.226	191.75
625.433	184.75
625.639	186.75
625.846	181.75
626.053	201.75
626.259	185.75
626.466	168.75
626.673	168.75
626.879	175.75
627.086	173.75
627.293	183.75
627.499	174.75
627.706	172.75
627.912	178.75
628.119	187.75
628.325	190.75
628.532	172.75
628.738	182.75
628.945	165.75
629.151	170.75
629.357	189.75
629.564	175.75
629.77	174.75
629.976	174.75
630.183	163.75
630.389	175.75
630.595	170.75
630.802	158.75
631.008	167.75
631.214	175.75
631.42	160.75
631.627	166.75
631.833	166.75
632.039	165.75
632.245	164.75
632.451	176.75
632.657	149.75
632.863	174.75
633.069	179.75
633.275	186.75
633.481	167.75
633.688	164.75
633.893	165.75
634.099	170.75
634.305	148.75
634.511	161.75
634.717	150.75
634.923	151.75
635.129	166.75
635.335	176.75
635.541	158.75
635.747	161.75
635.952	163.75
636.158	179.75
636.364	168.75
636.57	170.75
636.775	167.75
636.981	170.75
637.187	169.75
637.392	176.75
637.598	168.75
637.804	158.75
638.009	165.75
638.215	148.75
638.421	155.75
638.626	153.75
638.832	152.75
639.037	161.75
639.243	161.75
639.448	165.75
639.654	164.75
639.859	168.75
640.065	162.75
640.27	152.75
640.475	142.75
640.681	160.75
640.886	155.75
641.091	161.75
641.297	170.75
641.502	165.75
641.707	164.75
641.913	162.75
642.118	155.75
642.323	151.75
642.528	146.75
642.733	147.75
642.939	144.75
643.144	148.75
643.349	155.75
643.554	160.75
643.759	144.75
643.964	144.75
644.169	155.75
644.374	150.75
644.579	166.75
644.784	150.75
644.989	163.75
645.194	142.75
645.399	140.75
645.604	145.75
645.809	152.75
646.014	139.75
646.219	156.75
646.423	131.75
646.628	152.75
646.833	135.75
647.038	155.75
647.243	160.75
647.447	148.75
647.652	148.75
647.857	137.75
648.062	154.75
648.266	152.75
648.471	170.75
648.676	155.75
648.88	153.75
649.085	150.75
649.289	147.75
649.494	168.75
649.698	185.75
649.903	160.75
650.107	160.75
650.312	143.75
650.516	162.75
650.721	127.75
650.925	142.75
651.13	143.75
651.334	151.75
651.539	149.75
651.743	141.75
651.947	142.75
652.152	126.75
652.356	125.75
652.56	133.75
652.764	131.75
652.969	132.75
653.173	147.75
653.377	127.75
653.581	116.75
653.785	135.75
653.99	139.75
654.194	127.75
654.398	124.75
654.602	139.75
654.806	123.75
655.01	137.75
655.214	120.75
655.418	126.75
655.622	121.75
655.826	119.75
656.03	108.75
656.234	137.75
656.438	136.75
656.642	129.75
656.846	120.75
657.049	114.75
657.253	99.75
657.457	111.75
657.661	119.75
657.865	114.75
658.068	108.75
658.272	109.75
658.476	103.75
658.68	121.75
658.883	99.75
659.087	102.75
659.291	98.75
659.494	95.75
659.698	102.75
659.901	93.75
660.105	96.75
660.309	92.75
660.512	104.75
660.716	111.75
660.919	87.75
661.123	81.75
661.326	85.75
661.53	92.75
661.733	92.75
661.936	99.75
662.14	85.75
662.343	90.75
662.546	91.75
662.75	87.75
662.953	76.75
663.156	87.75
663.36	97.75
663.563	95.75
663.766	81.75
663.969	87.75
664.173	83.75
664.376	91.75
664.579	99.75
664.782	74.75
664.985	89.75
665.188	60.75
665.391	86.75
665.594	86.75
665.797	84.75
666	91.75
666.203	92.75
666.406	87.75
666.609	86.75
666.812	88.75
667.015	90.75
667.218	101.75
667.421	92.75
667.624	86.75
667.827	99.75
668.03	79.75
668.232	78.75
668.435	81.75
668.638	88.75
668.841	83.75
669.043	106.75
669.246	99.75
669.449	88.75
669.651	92.75
669.854	92.75
670.057	71.75
670.259	92.75
670.462	86.75
670.665	88.75
670.867	87.75
671.07	67.75
671.272	89.75
671.475	85.75
671.677	91.75
671.88	90.75
672.082	86.75
672.284	84.75
672.487	93.75
672.689	71.75
672.892	70.75
