Data from 1962.PennyLincolnUp.Lamp.En5.5.200Scan.071719.P1._HRD10591_13-52-38-059.txt Node
Date: Thu Jul 18 13:52:38 EDT 2019
User: cochatt
Spectrometer: HR+D1059
Trigger mode: 1
Integration Time (sec): 1.000000E-1
Scans to average: 1
Electric dark correction enabled: true
Nonlinearity correction enabled: false
Boxcar width: 0
XAxis mode: Wavelengths
Number of Pixels in Spectrum: 2048
>>>>>Begin Spectral Data<<<<<
223.165	-10.69
223.4	-10.69
223.635	-10.69
223.869	-12.69
224.104	-21.69
224.338	-22.69
224.573	-7.69
224.808	-6.69
225.042	-6.69
225.277	-11.69
225.511	-0.69
225.746	6.31
225.98	11.31
226.215	5.31
226.449	7.31
226.683	24.31
226.918	15.31
227.152	31.31
227.387	37.31
227.621	44.31
227.856	28.31
228.09	37.31
228.324	60.31
228.559	59.31
228.793	74.31
229.027	77.31
229.262	91.31
229.496	99.31
229.73	112.31
229.964	123.31
230.199	102.31
230.433	105.31
230.667	122.31
230.901	113.31
231.136	105.31
231.37	100.31
231.604	87.31
231.838	90.31
232.072	110.31
232.306	115.31
232.541	120.31
232.775	107.31
233.009	115.31
233.243	114.31
233.477	120.31
233.711	116.31
233.945	99.31
234.179	120.31
234.413	91.31
234.647	103.31
234.881	101.31
235.115	108.31
235.349	109.31
235.583	113.31
235.817	96.31
236.051	107.31
236.285	120.31
236.519	113.31
236.753	120.31
236.987	120.31
237.221	134.31
237.455	153.31
237.689	147.31
237.922	119.31
238.156	85.31
238.39	114.31
238.624	112.31
238.858	109.31
239.091	120.31
239.325	113.31
239.559	124.31
239.793	103.31
240.027	116.31
240.26	116.31
240.494	131.31
240.728	124.31
240.961	133.31
241.195	135.31
241.429	128.31
241.662	125.31
241.896	121.31
242.13	125.31
242.363	126.31
242.597	122.31
242.83	112.31
243.064	134.31
243.298	129.31
243.531	130.31
243.765	142.31
243.998	139.31
244.232	114.31
244.465	130.31
244.699	137.31
244.932	117.31
245.166	142.31
245.399	137.31
245.633	127.31
245.866	131.31
246.099	145.31
246.333	149.31
246.566	127.31
246.8	132.31
247.033	149.31
247.266	136.31
247.5	132.31
247.733	134.31
247.966	157.31
248.2	150.31
248.433	154.31
248.666	148.31
248.899	156.31
249.133	150.31
249.366	162.31
249.599	163.31
249.832	148.31
250.066	161.31
250.299	160.31
250.532	148.31
250.765	156.31
250.998	173.31
251.231	178.31
251.465	182.31
251.698	185.31
251.931	156.31
252.164	176.31
252.397	160.31
252.63	158.31
252.863	180.31
253.096	176.31
253.329	180.31
253.562	181.31
253.795	190.31
254.028	167.31
254.261	177.31
254.494	176.31
254.727	197.31
254.96	189.31
255.193	195.31
255.426	186.31
255.659	188.31
255.892	180.31
256.124	175.31
256.357	184.31
256.59	165.31
256.823	179.31
257.056	162.31
257.289	162.31
257.521	190.31
257.754	174.31
257.987	174.31
258.22	177.31
258.452	178.31
258.685	184.31
258.918	196.31
259.151	186.31
259.383	183.31
259.616	189.31
259.849	189.31
260.081	201.31
260.314	213.31
260.547	193.31
260.779	198.31
261.012	196.31
261.244	187.31
261.477	193.31
261.71	181.31
261.942	187.31
262.175	186.31
262.407	184.31
262.64	178.31
262.872	170.31
263.105	182.31
263.337	193.31
263.57	185.31
263.802	174.31
264.035	185.31
264.267	184.31
264.499	185.31
264.732	199.31
264.964	189.31
265.197	195.31
265.429	197.31
265.661	184.31
265.894	202.31
266.126	195.31
266.358	210.31
266.591	196.31
266.823	202.31
267.055	204.31
267.287	206.31
267.52	198.31
267.752	207.31
267.984	194.31
268.216	201.31
268.448	219.31
268.681	202.31
268.913	222.31
269.145	225.31
269.377	220.31
269.609	207.31
269.841	233.31
270.073	226.31
270.306	226.31
270.538	236.31
270.77	218.31
271.002	219.31
271.234	223.31
271.466	243.31
271.698	244.31
271.93	237.31
272.162	240.31
272.394	237.31
272.626	236.31
272.858	229.31
273.09	236.31
273.322	243.31
273.553	220.31
273.785	230.31
274.017	243.31
274.249	241.31
274.481	230.31
274.713	236.31
274.945	241.31
275.176	244.31
275.408	234.31
275.64	240.31
275.872	237.31
276.104	238.31
276.335	235.31
276.567	233.31
276.799	242.31
277.031	228.31
277.262	261.31
277.494	264.31
277.726	249.31
277.957	250.31
278.189	252.31
278.421	237.31
278.652	249.31
278.884	233.31
279.115	240.31
279.347	240.31
279.579	254.31
279.81	250.31
280.042	256.31
280.273	257.31
280.505	260.31
280.736	240.31
280.968	243.31
281.199	252.31
281.431	245.31
281.662	238.31
281.894	247.31
282.125	244.31
282.356	251.31
282.588	268.31
282.819	276.31
283.051	260.31
283.282	266.31
283.513	265.31
283.745	269.31
283.976	245.31
284.207	246.31
284.439	267.31
284.67	248.31
284.901	261.31
285.132	264.31
285.364	287.31
285.595	274.31
285.826	256.31
286.057	266.31
286.288	257.31
286.52	260.31
286.751	267.31
286.982	260.31
287.213	246.31
287.444	261.31
287.675	269.31
287.906	285.31
288.138	270.31
288.369	294.31
288.6	282.31
288.831	269.31
289.062	256.31
289.293	261.31
289.524	270.31
289.755	276.31
289.986	278.31
290.217	263.31
290.448	279.31
290.679	289.31
290.91	252.31
291.141	270.31
291.371	264.31
291.602	283.31
291.833	278.31
292.064	271.31
292.295	293.31
292.526	274.31
292.757	275.31
292.987	288.31
293.218	267.31
293.449	281.31
293.68	283.31
293.91	268.31
294.141	282.31
294.372	263.31
294.603	274.31
294.833	282.31
295.064	292.31
295.295	292.31
295.525	287.31
295.756	288.31
295.987	281.31
296.217	310.31
296.448	298.31
296.679	289.31
296.909	290.31
297.14	287.31
297.37	284.31
297.601	291.31
297.831	274.31
298.062	285.31
298.292	268.31
298.523	291.31
298.753	304.31
298.984	282.31
299.214	282.31
299.445	299.31
299.675	294.31
299.905	278.31
300.136	276.31
300.366	296.31
300.597	316.31
300.827	304.31
301.057	298.31
301.288	309.31
301.518	304.31
301.748	313.31
301.979	315.31
302.209	324.31
302.439	309.31
302.669	308.31
302.9	313.31
303.13	307.31
303.36	335.31
303.59	324.31
303.82	292.31
304.051	331.31
304.281	316.31
304.511	322.31
304.741	297.31
304.971	308.31
305.201	292.31
305.431	298.31
305.661	300.31
305.891	317.31
306.121	300.31
306.352	316.31
306.582	327.31
306.812	325.31
307.042	331.31
307.272	318.31
307.502	314.31
307.731	315.31
307.961	328.31
308.191	302.31
308.421	298.31
308.651	331.31
308.881	315.31
309.111	313.31
309.341	323.31
309.571	338.31
309.8	320.31
310.03	310.31
310.26	315.31
310.49	307.31
310.72	320.31
310.949	341.31
311.179	334.31
311.409	318.31
311.639	329.31
311.868	339.31
312.098	331.31
312.328	331.31
312.557	319.31
312.787	348.31
313.017	353.31
313.246	310.31
313.476	330.31
313.706	333.31
313.935	335.31
314.165	329.31
314.394	343.31
314.624	342.31
314.853	342.31
315.083	346.31
315.312	343.31
315.542	338.31
315.771	346.31
316.001	340.31
316.23	333.31
316.46	321.31
316.689	342.31
316.919	336.31
317.148	345.31
317.377	350.31
317.607	339.31
317.836	334.31
318.065	339.31
318.295	358.31
318.524	344.31
318.753	337.31
318.983	359.31
319.212	340.31
319.441	351.31
319.67	331.31
319.9	341.31
320.129	346.31
320.358	310.31
320.587	342.31
320.816	337.31
321.046	349.31
321.275	359.31
321.504	347.31
321.733	355.31
321.962	359.31
322.191	365.31
322.42	355.31
322.649	360.31
322.878	355.31
323.108	353.31
323.337	368.31
323.566	386.31
323.795	400.31
324.024	389.31
324.253	446.31
324.482	573.31
324.71	749.31
324.939	1085.31
325.168	960.31
325.397	589.31
325.626	444.31
325.855	390.31
326.084	394.31
326.313	395.31
326.542	405.31
326.77	412.31
326.999	460.31
327.228	546.31
327.457	738.31
327.686	875.31
327.914	595.31
328.143	474.31
328.372	442.31
328.6	419.31
328.829	389.31
329.058	393.31
329.287	406.31
329.515	432.31
329.744	408.31
329.972	397.31
330.201	405.31
330.43	416.31
330.658	412.31
330.887	440.31
331.115	422.31
331.344	416.31
331.572	389.31
331.801	405.31
332.03	418.31
332.258	412.31
332.486	399.31
332.715	404.31
332.943	411.31
333.172	407.31
333.4	408.31
333.629	436.31
333.857	444.31
334.085	439.31
334.314	429.31
334.542	436.31
334.771	465.31
334.999	418.31
335.227	406.31
335.455	404.31
335.684	432.31
335.912	411.31
336.14	430.31
336.369	405.31
336.597	411.31
336.825	397.31
337.053	401.31
337.281	407.31
337.51	406.31
337.738	403.31
337.966	400.31
338.194	426.31
338.422	403.31
338.65	396.31
338.878	396.31
339.106	407.31
339.334	383.31
339.562	401.31
339.79	406.31
340.018	378.31
340.246	369.31
340.474	399.31
340.702	373.31
340.93	384.31
341.158	391.31
341.386	389.31
341.614	382.31
341.842	388.31
342.07	361.31
342.298	374.31
342.526	378.31
342.754	379.31
342.981	385.31
343.209	379.31
343.437	381.31
343.665	404.31
343.893	421.31
344.12	450.31
344.348	423.31
344.576	405.31
344.804	413.31
345.031	410.31
345.259	397.31
345.487	396.31
345.714	380.31
345.942	388.31
346.17	371.31
346.397	394.31
346.625	384.31
346.853	361.31
347.08	355.31
347.308	374.31
347.535	368.31
347.763	380.31
347.99	380.31
348.218	377.31
348.445	374.31
348.673	376.31
348.9	349.31
349.128	350.31
349.355	369.31
349.583	351.31
349.81	373.31
350.037	370.31
350.265	368.31
350.492	366.31
350.72	361.31
350.947	362.31
351.174	354.31
351.402	353.31
351.629	373.31
351.856	363.31
352.083	362.31
352.311	362.31
352.538	386.31
352.765	380.31
352.992	370.31
353.22	370.31
353.447	376.31
353.674	370.31
353.901	351.31
354.128	357.31
354.355	353.31
354.583	355.31
354.81	348.31
355.037	356.31
355.264	374.31
355.491	357.31
355.718	353.31
355.945	346.31
356.172	350.31
356.399	347.31
356.626	352.31
356.853	364.31
357.08	359.31
357.307	361.31
357.534	359.31
357.761	370.31
357.988	377.31
358.215	362.31
358.441	360.31
358.668	356.31
358.895	373.31
359.122	355.31
359.349	355.31
359.576	376.31
359.802	368.31
360.029	372.31
360.256	357.31
360.483	372.31
360.709	364.31
360.936	382.31
361.163	377.31
361.39	360.31
361.616	356.31
361.843	376.31
362.07	383.31
362.296	370.31
362.523	360.31
362.749	356.31
362.976	368.31
363.203	369.31
363.429	350.31
363.656	374.31
363.882	370.31
364.109	363.31
364.335	378.31
364.562	358.31
364.788	374.31
365.015	372.31
365.241	361.31
365.468	352.31
365.694	347.31
365.92	372.31
366.147	366.31
366.373	365.31
366.599	365.31
366.826	340.31
367.052	357.31
367.278	357.31
367.505	360.31
367.731	358.31
367.957	355.31
368.184	373.31
368.41	355.31
368.636	356.31
368.862	386.31
369.089	362.31
369.315	369.31
369.541	360.31
369.767	363.31
369.993	358.31
370.219	359.31
370.445	372.31
370.672	372.31
370.898	359.31
371.124	371.31
371.35	374.31
371.576	376.31
371.802	382.31
372.028	362.31
372.254	382.31
372.48	379.31
372.706	392.31
372.932	387.31
373.158	378.31
373.384	379.31
373.61	395.31
373.835	385.31
374.061	377.31
374.287	371.31
374.513	389.31
374.739	387.31
374.965	403.31
375.191	389.31
375.416	381.31
375.642	389.31
375.868	394.31
376.094	386.31
376.319	373.31
376.545	384.31
376.771	359.31
376.997	356.31
377.222	375.31
377.448	368.31
377.674	373.31
377.899	392.31
378.125	370.31
378.35	383.31
378.576	383.31
378.802	369.31
379.027	377.31
379.253	371.31
379.478	376.31
379.704	384.31
379.929	376.31
380.155	373.31
380.38	375.31
380.606	359.31
380.831	363.31
381.057	377.31
381.282	376.31
381.507	392.31
381.733	374.31
381.958	376.31
382.184	400.31
382.409	368.31
382.634	380.31
382.86	393.31
383.085	413.31
383.31	408.31
383.535	416.31
383.761	411.31
383.986	410.31
384.211	412.31
384.436	417.31
384.662	420.31
384.887	416.31
385.112	438.31
385.337	432.31
385.562	432.31
385.787	425.31
386.013	436.31
386.238	432.31
386.463	460.31
386.688	438.31
386.913	438.31
387.138	421.31
387.363	432.31
387.588	424.31
387.813	434.31
388.038	426.31
388.263	439.31
388.488	451.31
388.713	427.31
388.938	428.31
389.163	440.31
389.387	437.31
389.612	418.31
389.837	412.31
390.062	438.31
390.287	436.31
390.512	409.31
390.736	423.31
390.961	440.31
391.186	438.31
391.411	438.31
391.636	455.31
391.86	423.31
392.085	460.31
392.31	463.31
392.534	444.31
392.759	438.31
392.984	451.31
393.208	437.31
393.433	463.31
393.658	467.31
393.882	449.31
394.107	444.31
394.331	432.31
394.556	429.31
394.78	425.31
395.005	428.31
395.229	456.31
395.454	462.31
395.678	457.31
395.903	470.31
396.127	486.31
396.352	464.31
396.576	451.31
396.801	445.31
397.025	464.31
397.249	453.31
397.474	455.31
397.698	470.31
397.922	483.31
398.147	492.31
398.371	498.31
398.595	499.31
398.82	487.31
399.044	510.31
399.268	548.31
399.492	594.31
399.717	609.31
399.941	646.31
400.165	631.31
400.389	624.31
400.613	580.31
400.837	552.31
401.062	513.31
401.286	520.31
401.51	492.31
401.734	502.31
401.958	512.31
402.182	516.31
402.406	508.31
402.63	504.31
402.854	504.31
403.078	512.31
403.302	493.31
403.526	526.31
403.75	539.31
403.974	525.31
404.198	533.31
404.422	524.31
404.645	514.31
404.869	544.31
405.093	536.31
405.317	550.31
405.541	589.31
405.765	564.31
405.988	527.31
406.212	522.31
406.436	545.31
406.66	587.31
406.883	548.31
407.107	587.31
407.331	614.31
407.555	650.31
407.778	639.31
408.002	613.31
408.226	584.31
408.449	584.31
408.673	577.31
408.896	575.31
409.12	596.31
409.344	581.31
409.567	542.31
409.791	521.31
410.014	523.31
410.238	523.31
410.461	528.31
410.685	520.31
410.908	532.31
411.132	543.31
411.355	562.31
411.578	562.31
411.802	508.31
412.025	520.31
412.249	530.31
412.472	530.31
412.695	536.31
412.919	520.31
413.142	524.31
413.365	513.31
413.589	512.31
413.812	499.31
414.035	500.31
414.258	482.31
414.482	476.31
414.705	480.31
414.928	485.31
415.151	483.31
415.374	489.31
415.597	490.31
415.821	503.31
416.044	489.31
416.267	476.31
416.49	477.31
416.713	492.31
416.936	484.31
417.159	484.31
417.382	490.31
417.605	511.31
417.828	506.31
418.051	508.31
418.274	515.31
418.497	509.31
418.72	474.31
418.943	494.31
419.166	518.31
419.389	556.31
419.611	548.31
419.834	505.31
420.057	502.31
420.28	489.31
420.503	487.31
420.726	501.31
420.948	479.31
421.171	542.31
421.394	532.31
421.617	519.31
421.839	494.31
422.062	511.31
422.285	500.31
422.507	532.31
422.73	576.31
422.953	564.31
423.175	504.31
423.398	512.31
423.621	527.31
423.843	518.31
424.066	546.31
424.288	519.31
424.511	534.31
424.733	536.31
424.956	597.31
425.178	581.31
425.401	577.31
425.623	604.31
425.846	551.31
426.068	509.31
426.291	504.31
426.513	506.31
426.735	503.31
426.958	536.31
427.18	574.31
427.402	638.31
427.625	683.31
427.847	600.31
428.069	523.31
428.292	533.31
428.514	462.31
428.736	487.31
428.958	464.31
429.181	459.31
429.403	448.31
429.625	498.31
429.847	505.31
430.069	530.31
430.292	533.31
430.514	477.31
430.736	473.31
430.958	470.31
431.18	443.31
431.402	454.31
431.624	457.31
431.846	473.31
432.068	457.31
432.29	457.31
432.512	459.31
432.734	471.31
432.956	459.31
433.178	466.31
433.4	462.31
433.622	459.31
433.844	454.31
434.066	459.31
434.287	462.31
434.509	455.31
434.731	473.31
434.953	508.31
435.175	488.31
435.397	492.31
435.618	505.31
435.84	518.31
436.062	578.31
436.284	622.31
436.505	536.31
436.727	508.31
436.949	472.31
437.17	460.31
437.392	471.31
437.614	487.31
437.835	496.31
438.057	526.31
438.278	558.31
438.5	568.31
438.721	648.31
438.943	611.31
439.165	512.31
439.386	500.31
439.608	495.31
439.829	490.31
440.05	509.31
440.272	541.31
440.493	493.31
440.715	474.31
440.936	475.31
441.158	467.31
441.379	476.31
441.6	491.31
441.822	502.31
442.043	528.31
442.264	583.31
442.486	570.31
442.707	532.31
442.928	518.31
443.149	514.31
443.371	501.31
443.592	538.31
443.813	582.31
444.034	654.31
444.255	578.31
444.476	530.31
444.698	541.31
444.919	531.31
445.14	662.31
445.361	602.31
445.582	544.31
445.803	547.31
446.024	609.31
446.245	597.31
446.466	550.31
446.687	524.31
446.908	484.31
447.129	468.31
447.35	468.31
447.571	463.31
447.792	461.31
448.013	475.31
448.234	461.31
448.455	489.31
448.675	539.31
448.896	605.31
449.117	562.31
449.338	510.31
449.559	584.31
449.779	661.31
450	535.31
450.221	487.31
450.442	436.31
450.662	442.31
450.883	449.31
451.104	450.31
451.324	444.31
451.545	422.31
451.766	416.31
451.986	416.31
452.207	417.31
452.428	425.31
452.648	417.31
452.869	398.31
453.089	413.31
453.31	424.31
453.53	402.31
453.751	434.31
453.971	427.31
454.192	420.31
454.412	411.31
454.633	430.31
454.853	422.31
455.073	415.31
455.294	419.31
455.514	456.31
455.734	441.31
455.955	398.31
456.175	398.31
456.395	405.31
456.616	406.31
456.836	406.31
457.056	390.31
457.276	408.31
457.497	408.31
457.717	413.31
457.937	407.31
458.157	404.31
458.377	416.31
458.598	436.31
458.818	461.31
459.038	473.31
459.258	520.31
459.478	484.31
459.698	450.31
459.918	465.31
460.138	484.31
460.358	504.31
460.578	485.31
460.798	505.31
461.018	512.31
461.238	500.31
461.458	505.31
461.678	488.31
461.898	482.31
462.118	482.31
462.338	506.31
462.558	527.31
462.777	541.31
462.997	564.31
463.217	607.31
463.437	614.31
463.657	571.31
463.876	569.31
464.096	546.31
464.316	522.31
464.536	526.31
464.755	531.31
464.975	536.31
465.195	541.31
465.414	537.31
465.634	512.31
465.854	513.31
466.073	480.31
466.293	459.31
466.512	447.31
466.732	464.31
466.951	435.31
467.171	434.31
467.391	433.31
467.61	439.31
467.829	446.31
468.049	454.31
468.268	440.31
468.488	426.31
468.707	442.31
468.927	424.31
469.146	436.31
469.365	428.31
469.585	408.31
469.804	457.31
470.023	463.31
470.243	450.31
470.462	461.31
470.681	460.31
470.901	459.31
471.12	450.31
471.339	449.31
471.558	441.31
471.777	459.31
471.997	452.31
472.216	453.31
472.435	450.31
472.654	458.31
472.873	428.31
473.092	446.31
473.311	435.31
473.53	452.31
473.749	429.31
473.968	462.31
474.187	516.31
474.406	514.31
474.625	460.31
474.844	461.31
475.063	434.31
475.282	451.31
475.501	440.31
475.72	433.31
475.939	432.31
476.158	466.31
476.377	451.31
476.596	465.31
476.814	484.31
477.033	462.31
477.252	475.31
477.471	473.31
477.69	470.31
477.908	502.31
478.127	520.31
478.346	499.31
478.564	535.31
478.783	493.31
479.002	532.31
479.22	541.31
479.439	526.31
479.658	537.31
479.876	533.31
480.095	549.31
480.313	551.31
480.532	561.31
480.751	565.31
480.969	564.31
481.188	577.31
481.406	550.31
481.624	550.31
481.843	533.31
482.061	540.31
482.28	528.31
482.498	509.31
482.717	530.31
482.935	540.31
483.153	526.31
483.372	499.31
483.59	530.31
483.808	528.31
484.027	531.31
484.245	521.31
484.463	516.31
484.681	562.31
484.9	558.31
485.118	552.31
485.336	532.31
485.554	543.31
485.772	554.31
485.99	539.31
486.209	547.31
486.427	565.31
486.645	547.31
486.863	533.31
487.081	563.31
487.299	545.31
487.517	557.31
487.735	544.31
487.953	566.31
488.171	547.31
488.389	546.31
488.607	549.31
488.825	564.31
489.043	557.31
489.261	590.31
489.479	573.31
489.696	549.31
489.914	536.31
490.132	557.31
490.35	577.31
490.568	562.31
490.786	559.31
491.003	557.31
491.221	578.31
491.439	574.31
491.657	564.31
491.874	579.31
492.092	576.31
492.31	597.31
492.527	573.31
492.745	588.31
492.963	589.31
493.18	606.31
493.398	590.31
493.615	595.31
493.833	612.31
494.05	577.31
494.268	604.31
494.485	587.31
494.703	578.31
494.92	597.31
495.138	617.31
495.355	616.31
495.573	618.31
495.79	618.31
496.008	621.31
496.225	641.31
496.442	615.31
496.66	619.31
496.877	629.31
497.094	660.31
497.312	640.31
497.529	687.31
497.746	644.31
497.963	690.31
498.181	694.31
498.398	734.31
498.615	741.31
498.832	766.31
499.049	804.31
499.267	811.31
499.484	852.31
499.701	931.31
499.918	957.31
500.135	1051.31
500.352	1101.31
500.569	1143.31
500.786	1159.31
501.003	1116.31
501.22	1036.31
501.437	982.31
501.654	916.31
501.871	886.31
502.088	837.31
502.305	827.31
502.522	792.31
502.739	760.31
502.956	742.31
503.172	714.31
503.389	685.31
503.606	669.31
503.823	676.31
504.04	664.31
504.256	679.31
504.473	667.31
504.69	667.31
504.907	665.31
505.123	634.31
505.34	642.31
505.557	612.31
505.773	585.31
505.99	585.31
506.207	589.31
506.423	569.31
506.64	564.31
506.856	571.31
507.073	558.31
507.289	556.31
507.506	577.31
507.722	556.31
507.939	543.31
508.155	547.31
508.372	547.31
508.588	539.31
508.805	533.31
509.021	565.31
509.238	515.31
509.454	549.31
509.67	546.31
509.887	540.31
510.103	529.31
510.319	546.31
510.536	577.31
510.752	728.31
510.968	633.31
511.184	520.31
511.401	530.31
511.617	501.31
511.833	484.31
512.049	521.31
512.265	496.31
512.481	526.31
512.698	491.31
512.914	514.31
513.13	501.31
513.346	485.31
513.562	498.31
513.778	508.31
513.994	532.31
514.21	507.31
514.426	541.31
514.642	520.31
514.858	529.31
515.074	566.31
515.29	580.31
515.506	680.31
515.721	626.31
515.937	578.31
516.153	539.31
516.369	551.31
516.585	555.31
516.801	565.31
517.016	576.31
517.232	580.31
517.448	579.31
517.664	586.31
517.879	591.31
518.095	573.31
518.311	590.31
518.527	587.31
518.742	571.31
518.958	563.31
519.173	573.31
519.389	549.31
519.605	533.31
519.82	525.31
520.036	554.31
520.251	536.31
520.467	523.31
520.682	522.31
520.898	521.31
521.113	519.31
521.329	541.31
521.544	547.31
521.76	588.31
521.975	747.31
522.19	741.31
522.406	594.31
522.621	533.31
522.836	510.31
523.052	503.31
523.267	497.31
523.482	477.31
523.698	467.31
523.913	481.31
524.128	465.31
524.343	477.31
524.559	455.31
524.774	470.31
524.989	465.31
525.204	460.31
525.419	454.31
525.634	453.31
525.849	434.31
526.064	444.31
526.28	462.31
526.495	474.31
526.71	447.31
526.925	453.31
527.14	454.31
527.355	447.31
527.57	466.31
527.785	454.31
527.999	440.31
528.214	432.31
528.429	449.31
528.644	456.31
528.859	448.31
529.074	447.31
529.289	456.31
529.503	441.31
529.718	467.31
529.933	456.31
530.148	448.31
530.363	446.31
530.577	428.31
530.792	445.31
531.007	420.31
531.221	458.31
531.436	444.31
531.651	442.31
531.865	441.31
532.08	455.31
532.295	447.31
532.509	424.31
532.724	415.31
532.938	443.31
533.153	429.31
533.367	447.31
533.582	449.31
533.796	449.31
534.011	449.31
534.225	441.31
534.44	428.31
534.654	429.31
534.868	442.31
535.083	429.31
535.297	426.31
535.511	445.31
535.726	429.31
535.94	420.31
536.154	426.31
536.369	440.31
536.583	429.31
536.797	416.31
537.011	404.31
537.225	428.31
537.44	415.31
537.654	438.31
537.868	417.31
538.082	408.31
538.296	440.31
538.51	416.31
538.724	424.31
538.938	404.31
539.153	393.31
539.367	410.31
539.581	419.31
539.795	398.31
540.009	406.31
540.222	401.31
540.436	400.31
540.65	400.31
540.864	442.31
541.078	424.31
541.292	429.31
541.506	413.31
541.72	411.31
541.934	417.31
542.147	412.31
542.361	416.31
542.575	410.31
542.789	418.31
543.002	422.31
543.216	417.31
543.43	421.31
543.644	417.31
543.857	417.31
544.071	408.31
544.285	398.31
544.498	424.31
544.712	391.31
544.925	426.31
545.139	414.31
545.352	401.31
545.566	411.31
545.779	430.31
545.993	429.31
546.206	440.31
546.42	433.31
546.633	414.31
546.847	424.31
547.06	441.31
547.274	412.31
547.487	425.31
547.7	415.31
547.914	402.31
548.127	425.31
548.34	408.31
548.554	401.31
548.767	434.31
548.98	415.31
549.193	409.31
549.407	425.31
549.62	424.31
549.833	429.31
550.046	435.31
550.259	408.31
550.473	432.31
550.686	421.31
550.899	424.31
551.112	416.31
551.325	409.31
551.538	399.31
551.751	406.31
551.964	399.31
552.177	427.31
552.39	430.31
552.603	428.31
552.816	442.31
553.029	431.31
553.242	432.31
553.455	458.31
553.667	487.31
553.88	442.31
554.093	448.31
554.306	426.31
554.519	432.31
554.732	405.31
554.944	412.31
555.157	402.31
555.37	390.31
555.583	400.31
555.795	414.31
556.008	397.31
556.221	371.31
556.433	382.31
556.646	377.31
556.859	373.31
557.071	382.31
557.284	360.31
557.496	369.31
557.709	380.31
557.921	360.31
558.134	373.31
558.346	359.31
558.559	378.31
558.771	376.31
558.984	380.31
559.196	368.31
559.409	374.31
559.621	372.31
559.833	354.31
560.046	360.31
560.258	378.31
560.47	372.31
560.683	376.31
560.895	354.31
561.107	365.31
561.32	365.31
561.532	372.31
561.744	380.31
561.956	390.31
562.168	375.31
562.381	381.31
562.593	363.31
562.805	372.31
563.017	354.31
563.229	368.31
563.441	382.31
563.653	392.31
563.865	363.31
564.077	397.31
564.289	392.31
564.501	376.31
564.713	391.31
564.925	406.31
565.137	388.31
565.349	411.31
565.561	422.31
565.773	428.31
565.985	450.31
566.197	455.31
566.408	462.31
566.62	475.31
566.832	510.31
567.044	526.31
567.255	529.31
567.467	526.31
567.679	553.31
567.891	557.31
568.102	566.31
568.314	571.31
568.526	525.31
568.737	486.31
568.949	471.31
569.161	467.31
569.372	445.31
569.584	409.31
569.795	411.31
570.007	388.31
570.218	417.31
570.43	429.31
570.641	384.31
570.853	368.31
571.064	384.31
571.276	378.31
571.487	380.31
571.698	356.31
571.91	364.31
572.121	353.31
572.333	348.31
572.544	349.31
572.755	339.31
572.966	354.31
573.178	335.31
573.389	340.31
573.6	332.31
573.811	331.31
574.023	348.31
574.234	350.31
574.445	328.31
574.656	322.31
574.867	347.31
575.078	339.31
575.289	323.31
575.501	330.31
575.712	333.31
575.923	313.31
576.134	331.31
576.345	325.31
576.556	329.31
576.767	322.31
576.978	328.31
577.188	324.31
577.399	305.31
577.61	317.31
577.821	321.31
578.032	310.31
578.243	334.31
578.454	371.31
578.665	361.31
578.875	291.31
579.086	323.31
579.297	304.31
579.508	309.31
579.718	306.31
579.929	309.31
580.14	317.31
580.35	319.31
580.561	309.31
580.772	300.31
580.982	300.31
581.193	296.31
581.403	299.31
581.614	296.31
581.825	304.31
582.035	311.31
582.246	303.31
582.456	298.31
582.667	301.31
582.877	300.31
583.087	298.31
583.298	286.31
583.508	307.31
583.719	295.31
583.929	306.31
584.139	308.31
584.35	313.31
584.56	305.31
584.77	287.31
584.981	292.31
585.191	301.31
585.401	290.31
585.611	283.31
585.821	295.31
586.032	281.31
586.242	295.31
586.452	285.31
586.662	292.31
586.872	302.31
587.082	302.31
587.292	299.31
587.502	281.31
587.713	300.31
587.923	301.31
588.133	296.31
588.343	308.31
588.553	285.31
588.762	288.31
588.972	320.31
589.182	510.31
589.392	481.31
589.602	340.31
589.812	453.31
590.022	371.31
590.232	312.31
590.441	310.31
590.651	285.31
590.861	281.31
591.071	269.31
591.281	286.31
591.49	296.31
591.7	275.31
591.91	295.31
592.119	309.31
592.329	291.31
592.539	321.31
592.748	324.31
592.958	310.31
593.167	317.31
593.377	331.31
593.587	356.31
593.796	336.31
594.006	341.31
594.215	333.31
594.424	321.31
594.634	330.31
594.843	343.31
595.053	323.31
595.262	305.31
595.472	302.31
595.681	312.31
595.89	299.31
596.1	295.31
596.309	287.31
596.518	292.31
596.727	281.31
596.937	274.31
597.146	270.31
597.355	268.31
597.564	274.31
597.774	283.31
597.983	284.31
598.192	273.31
598.401	271.31
598.61	249.31
598.819	269.31
599.028	246.31
599.237	264.31
599.446	260.31
599.655	270.31
599.864	260.31
600.073	253.31
600.282	252.31
600.491	256.31
600.7	266.31
600.909	265.31
601.118	246.31
601.327	250.31
601.536	265.31
601.745	254.31
601.953	252.31
602.162	245.31
602.371	245.31
602.58	236.31
602.789	267.31
602.997	251.31
603.206	259.31
603.415	256.31
603.623	263.31
603.832	240.31
604.041	262.31
604.249	236.31
604.458	244.31
604.666	229.31
604.875	239.31
605.084	242.31
605.292	241.31
605.501	261.31
605.709	253.31
605.918	243.31
606.126	228.31
606.334	244.31
606.543	248.31
606.751	244.31
606.96	239.31
607.168	225.31
607.376	222.31
607.585	230.31
607.793	238.31
608.001	234.31
608.21	241.31
608.418	234.31
608.626	232.31
608.834	256.31
609.043	234.31
609.251	222.31
609.459	228.31
609.667	249.31
609.875	229.31
610.083	225.31
610.291	227.31
610.499	245.31
610.707	234.31
610.916	227.31
611.124	234.31
611.332	241.31
611.54	248.31
611.748	238.31
611.955	238.31
612.163	235.31
612.371	219.31
612.579	226.31
612.787	234.31
612.995	227.31
613.203	234.31
613.411	226.31
613.618	218.31
613.826	240.31
614.034	235.31
614.242	226.31
614.449	221.31
614.657	222.31
614.865	226.31
615.072	237.31
615.28	245.31
615.488	233.31
615.695	229.31
615.903	224.31
616.111	246.31
616.318	248.31
616.526	256.31
616.733	245.31
616.941	217.31
617.148	254.31
617.356	249.31
617.563	221.31
617.771	234.31
617.978	214.31
618.185	229.31
618.393	234.31
618.6	219.31
618.807	235.31
619.015	233.31
619.222	228.31
619.429	228.31
619.637	233.31
619.844	224.31
620.051	229.31
620.258	195.31
620.466	205.31
620.673	217.31
620.88	216.31
621.087	216.31
621.294	217.31
621.501	224.31
621.708	209.31
621.915	232.31
622.122	226.31
622.329	230.31
622.536	198.31
622.743	225.31
622.95	212.31
623.157	208.31
623.364	219.31
623.571	216.31
623.778	223.31
623.985	224.31
624.192	194.31
624.399	201.31
624.606	200.31
624.812	204.31
625.019	210.31
625.226	208.31
625.433	218.31
625.639	204.31
625.846	193.31
626.053	184.31
626.259	215.31
626.466	204.31
626.673	206.31
626.879	198.31
627.086	211.31
627.293	206.31
627.499	192.31
627.706	211.31
627.912	199.31
628.119	202.31
628.325	204.31
628.532	205.31
628.738	185.31
628.945	217.31
629.151	204.31
629.357	202.31
629.564	190.31
629.77	196.31
629.976	188.31
630.183	187.31
630.389	193.31
630.595	197.31
630.802	209.31
631.008	166.31
631.214	194.31
631.42	201.31
631.627	214.31
631.833	205.31
632.039	195.31
632.245	189.31
632.451	188.31
632.657	181.31
632.863	204.31
633.069	183.31
633.275	188.31
633.481	179.31
633.688	185.31
633.893	189.31
634.099	189.31
634.305	193.31
634.511	187.31
634.717	177.31
634.923	187.31
635.129	170.31
635.335	180.31
635.541	185.31
635.747	185.31
635.952	179.31
636.158	179.31
636.364	195.31
636.57	176.31
636.775	192.31
636.981	180.31
637.187	189.31
637.392	188.31
637.598	182.31
637.804	180.31
638.009	180.31
638.215	182.31
638.421	185.31
638.626	189.31
638.832	169.31
639.037	176.31
639.243	178.31
639.448	176.31
639.654	194.31
639.859	172.31
640.065	196.31
640.27	185.31
640.475	181.31
640.681	191.31
640.886	186.31
641.091	173.31
641.297	178.31
641.502	182.31
641.707	164.31
641.913	163.31
642.118	167.31
642.323	159.31
642.528	162.31
642.733	183.31
642.939	175.31
643.144	162.31
643.349	156.31
643.554	169.31
643.759	174.31
643.964	148.31
644.169	163.31
644.374	152.31
644.579	166.31
644.784	166.31
644.989	176.31
645.194	157.31
645.399	169.31
645.604	167.31
645.809	171.31
646.014	160.31
646.219	157.31
646.423	161.31
646.628	179.31
646.833	169.31
647.038	155.31
647.243	161.31
647.447	179.31
647.652	181.31
647.857	166.31
648.062	167.31
648.266	180.31
648.471	188.31
648.676	172.31
648.88	164.31
649.085	178.31
649.289	162.31
649.494	185.31
649.698	184.31
649.903	173.31
650.107	176.31
650.312	168.31
650.516	142.31
650.721	151.31
650.925	155.31
651.13	149.31
651.334	158.31
651.539	155.31
651.743	156.31
651.947	153.31
652.152	162.31
652.356	159.31
652.56	172.31
652.764	178.31
652.969	150.31
653.173	150.31
653.377	147.31
653.581	150.31
653.785	159.31
653.99	157.31
654.194	145.31
654.398	140.31
654.602	160.31
654.806	137.31
655.01	162.31
655.214	154.31
655.418	145.31
655.622	154.31
655.826	163.31
656.03	173.31
656.234	174.31
656.438	172.31
656.642	179.31
656.846	181.31
657.049	149.31
657.253	156.31
657.457	152.31
657.661	146.31
657.865	127.31
658.068	136.31
658.272	120.31
658.476	108.31
658.68	111.31
658.883	131.31
659.087	111.31
659.291	115.31
659.494	93.31
659.698	108.31
659.901	111.31
660.105	104.31
660.309	107.31
660.512	86.31
660.716	105.31
660.919	88.31
661.123	96.31
661.326	102.31
661.53	96.31
661.733	89.31
661.936	87.31
662.14	85.31
662.343	94.31
662.546	81.31
662.75	97.31
662.953	86.31
663.156	88.31
663.36	90.31
663.563	88.31
663.766	82.31
663.969	94.31
664.173	83.31
664.376	87.31
664.579	84.31
664.782	85.31
664.985	73.31
665.188	78.31
665.391	83.31
665.594	81.31
665.797	84.31
666	98.31
666.203	88.31
666.406	72.31
666.609	90.31
666.812	93.31
667.015	87.31
667.218	104.31
667.421	77.31
667.624	99.31
667.827	87.31
668.03	81.31
668.232	94.31
668.435	74.31
668.638	76.31
668.841	80.31
669.043	72.31
669.246	100.31
669.449	81.31
669.651	81.31
669.854	79.31
670.057	72.31
670.259	68.31
670.462	84.31
670.665	74.31
670.867	97.31
671.07	81.31
671.272	73.31
671.475	107.31
671.677	64.31
671.88	87.31
672.082	69.31
672.284	74.31
672.487	94.31
672.689	77.31
672.892	79.31
