Data from 1962.PennyLincolnUp.Lamp.En5.5.200Scan.071719.P1._HRD10591_13-52-58-060.txt Node
Date: Thu Jul 18 13:52:58 EDT 2019
User: cochatt
Spectrometer: HR+D1059
Trigger mode: 1
Integration Time (sec): 1.000000E-1
Scans to average: 1
Electric dark correction enabled: true
Nonlinearity correction enabled: false
Boxcar width: 0
XAxis mode: Wavelengths
Number of Pixels in Spectrum: 2048
>>>>>Begin Spectral Data<<<<<
223.165	-18.44
223.4	-18.44
223.635	-18.44
223.869	-27.44
224.104	-10.44
224.338	-25.44
224.573	-27.44
224.808	-10.44
225.042	-21.44
225.277	-1.44
225.511	1.56
225.746	7.56
225.98	3.56
226.215	26.56
226.449	15.56
226.683	29.56
226.918	26.56
227.152	31.56
227.387	30.56
227.621	36.56
227.856	35.56
228.09	44.56
228.324	58.56
228.559	59.56
228.793	64.56
229.027	97.56
229.262	92.56
229.496	97.56
229.73	100.56
229.964	121.56
230.199	112.56
230.433	86.56
230.667	115.56
230.901	100.56
231.136	101.56
231.37	120.56
231.604	99.56
231.838	109.56
232.072	124.56
232.306	108.56
232.541	101.56
232.775	119.56
233.009	100.56
233.243	96.56
233.477	111.56
233.711	99.56
233.945	97.56
234.179	110.56
234.413	104.56
234.647	107.56
234.881	113.56
235.115	114.56
235.349	105.56
235.583	113.56
235.817	112.56
236.051	110.56
236.285	125.56
236.519	108.56
236.753	112.56
236.987	120.56
237.221	143.56
237.455	160.56
237.689	149.56
237.922	119.56
238.156	122.56
238.39	109.56
238.624	104.56
238.858	121.56
239.091	121.56
239.325	128.56
239.559	116.56
239.793	111.56
240.027	116.56
240.26	118.56
240.494	130.56
240.728	135.56
240.961	115.56
241.195	125.56
241.429	127.56
241.662	149.56
241.896	136.56
242.13	126.56
242.363	124.56
242.597	113.56
242.83	125.56
243.064	126.56
243.298	128.56
243.531	134.56
243.765	110.56
243.998	137.56
244.232	128.56
244.465	139.56
244.699	120.56
244.932	138.56
245.166	121.56
245.399	151.56
245.633	149.56
245.866	151.56
246.099	138.56
246.333	143.56
246.566	124.56
246.8	134.56
247.033	140.56
247.266	153.56
247.5	141.56
247.733	155.56
247.966	132.56
248.2	141.56
248.433	142.56
248.666	163.56
248.899	153.56
249.133	159.56
249.366	182.56
249.599	157.56
249.832	166.56
250.066	163.56
250.299	142.56
250.532	156.56
250.765	176.56
250.998	186.56
251.231	182.56
251.465	197.56
251.698	185.56
251.931	157.56
252.164	162.56
252.397	172.56
252.63	177.56
252.863	162.56
253.096	175.56
253.329	184.56
253.562	183.56
253.795	180.56
254.028	185.56
254.261	185.56
254.494	188.56
254.727	189.56
254.96	210.56
255.193	218.56
255.426	196.56
255.659	193.56
255.892	191.56
256.124	191.56
256.357	177.56
256.59	196.56
256.823	184.56
257.056	177.56
257.289	176.56
257.521	177.56
257.754	197.56
257.987	188.56
258.22	178.56
258.452	181.56
258.685	181.56
258.918	205.56
259.151	196.56
259.383	205.56
259.616	197.56
259.849	183.56
260.081	178.56
260.314	225.56
260.547	205.56
260.779	211.56
261.012	213.56
261.244	211.56
261.477	197.56
261.71	196.56
261.942	191.56
262.175	204.56
262.407	206.56
262.64	202.56
262.872	199.56
263.105	197.56
263.337	204.56
263.57	205.56
263.802	180.56
264.035	199.56
264.267	198.56
264.499	199.56
264.732	211.56
264.964	211.56
265.197	204.56
265.429	191.56
265.661	210.56
265.894	188.56
266.126	201.56
266.358	213.56
266.591	209.56
266.823	210.56
267.055	210.56
267.287	216.56
267.52	200.56
267.752	201.56
267.984	221.56
268.216	219.56
268.448	219.56
268.681	225.56
268.913	216.56
269.145	220.56
269.377	242.56
269.609	213.56
269.841	235.56
270.073	249.56
270.306	244.56
270.538	249.56
270.77	267.56
271.002	232.56
271.234	245.56
271.466	258.56
271.698	250.56
271.93	261.56
272.162	260.56
272.394	265.56
272.626	248.56
272.858	258.56
273.09	253.56
273.322	236.56
273.553	238.56
273.785	238.56
274.017	235.56
274.249	244.56
274.481	248.56
274.713	243.56
274.945	246.56
275.176	247.56
275.408	248.56
275.64	251.56
275.872	249.56
276.104	258.56
276.335	254.56
276.567	258.56
276.799	233.56
277.031	242.56
277.262	258.56
277.494	259.56
277.726	273.56
277.957	267.56
278.189	248.56
278.421	241.56
278.652	261.56
278.884	233.56
279.115	246.56
279.347	252.56
279.579	238.56
279.81	254.56
280.042	244.56
280.273	260.56
280.505	243.56
280.736	229.56
280.968	272.56
281.199	266.56
281.431	257.56
281.662	258.56
281.894	276.56
282.125	240.56
282.356	273.56
282.588	276.56
282.819	278.56
283.051	289.56
283.282	268.56
283.513	274.56
283.745	277.56
283.976	273.56
284.207	268.56
284.439	264.56
284.67	261.56
284.901	259.56
285.132	271.56
285.364	265.56
285.595	262.56
285.826	277.56
286.057	265.56
286.288	284.56
286.52	262.56
286.751	289.56
286.982	272.56
287.213	266.56
287.444	279.56
287.675	269.56
287.906	276.56
288.138	298.56
288.369	281.56
288.6	302.56
288.831	291.56
289.062	277.56
289.293	274.56
289.524	286.56
289.755	291.56
289.986	273.56
290.217	271.56
290.448	285.56
290.679	279.56
290.91	289.56
291.141	301.56
291.371	287.56
291.602	290.56
291.833	294.56
292.064	288.56
292.295	277.56
292.526	256.56
292.757	300.56
292.987	284.56
293.218	269.56
293.449	308.56
293.68	267.56
293.91	286.56
294.141	297.56
294.372	307.56
294.603	283.56
294.833	293.56
295.064	294.56
295.295	290.56
295.525	277.56
295.756	286.56
295.987	284.56
296.217	298.56
296.448	307.56
296.679	294.56
296.909	284.56
297.14	313.56
297.37	316.56
297.601	277.56
297.831	307.56
298.062	316.56
298.292	292.56
298.523	288.56
298.753	308.56
298.984	316.56
299.214	308.56
299.445	297.56
299.675	320.56
299.905	289.56
300.136	296.56
300.366	300.56
300.597	309.56
300.827	312.56
301.057	309.56
301.288	294.56
301.518	314.56
301.748	313.56
301.979	322.56
302.209	320.56
302.439	324.56
302.669	335.56
302.9	308.56
303.13	308.56
303.36	315.56
303.59	313.56
303.82	333.56
304.051	317.56
304.281	316.56
304.511	313.56
304.741	317.56
304.971	303.56
305.201	315.56
305.431	315.56
305.661	310.56
305.891	310.56
306.121	310.56
306.352	327.56
306.582	322.56
306.812	316.56
307.042	330.56
307.272	314.56
307.502	338.56
307.731	333.56
307.961	318.56
308.191	333.56
308.421	316.56
308.651	315.56
308.881	324.56
309.111	331.56
309.341	329.56
309.571	344.56
309.8	331.56
310.03	334.56
310.26	330.56
310.49	331.56
310.72	341.56
310.949	318.56
311.179	349.56
311.409	345.56
311.639	329.56
311.868	328.56
312.098	348.56
312.328	364.56
312.557	358.56
312.787	341.56
313.017	361.56
313.246	358.56
313.476	356.56
313.706	357.56
313.935	331.56
314.165	366.56
314.394	364.56
314.624	332.56
314.853	342.56
315.083	346.56
315.312	340.56
315.542	361.56
315.771	364.56
316.001	346.56
316.23	365.56
316.46	356.56
316.689	353.56
316.919	348.56
317.148	357.56
317.377	350.56
317.607	342.56
317.836	348.56
318.065	355.56
318.295	358.56
318.524	348.56
318.753	344.56
318.983	368.56
319.212	368.56
319.441	368.56
319.67	368.56
319.9	357.56
320.129	353.56
320.358	350.56
320.587	353.56
320.816	356.56
321.046	346.56
321.275	359.56
321.504	361.56
321.733	363.56
321.962	342.56
322.191	372.56
322.42	387.56
322.649	357.56
322.878	373.56
323.108	391.56
323.337	390.56
323.566	411.56
323.795	407.56
324.024	429.56
324.253	483.56
324.482	581.56
324.71	783.56
324.939	1112.56
325.168	973.56
325.397	583.56
325.626	438.56
325.855	406.56
326.084	411.56
326.313	414.56
326.542	416.56
326.77	417.56
326.999	460.56
327.228	557.56
327.457	738.56
327.686	854.56
327.914	625.56
328.143	485.56
328.372	468.56
328.6	435.56
328.829	441.56
329.058	413.56
329.287	449.56
329.515	422.56
329.744	409.56
329.972	413.56
330.201	412.56
330.43	425.56
330.658	434.56
330.887	438.56
331.115	457.56
331.344	415.56
331.572	422.56
331.801	413.56
332.03	429.56
332.258	417.56
332.486	414.56
332.715	435.56
332.943	434.56
333.172	451.56
333.4	452.56
333.629	471.56
333.857	488.56
334.085	459.56
334.314	485.56
334.542	471.56
334.771	456.56
334.999	457.56
335.227	437.56
335.455	449.56
335.684	436.56
335.912	436.56
336.14	432.56
336.369	433.56
336.597	423.56
336.825	449.56
337.053	432.56
337.281	416.56
337.51	441.56
337.738	426.56
337.966	414.56
338.194	435.56
338.422	420.56
338.65	428.56
338.878	431.56
339.106	435.56
339.334	406.56
339.562	405.56
339.79	404.56
340.018	387.56
340.246	413.56
340.474	401.56
340.702	392.56
340.93	398.56
341.158	405.56
341.386	392.56
341.614	404.56
341.842	396.56
342.07	403.56
342.298	393.56
342.526	379.56
342.754	396.56
342.981	390.56
343.209	393.56
343.437	427.56
343.665	415.56
343.893	406.56
344.12	441.56
344.348	446.56
344.576	461.56
344.804	421.56
345.031	413.56
345.259	421.56
345.487	417.56
345.714	404.56
345.942	388.56
346.17	374.56
346.397	384.56
346.625	382.56
346.853	387.56
347.08	371.56
347.308	377.56
347.535	395.56
347.763	393.56
347.99	383.56
348.218	384.56
348.445	361.56
348.673	364.56
348.9	385.56
349.128	377.56
349.355	374.56
349.583	372.56
349.81	393.56
350.037	384.56
350.265	386.56
350.492	374.56
350.72	384.56
350.947	369.56
351.174	378.56
351.402	381.56
351.629	375.56
351.856	376.56
352.083	375.56
352.311	384.56
352.538	404.56
352.765	397.56
352.992	384.56
353.22	390.56
353.447	390.56
353.674	374.56
353.901	383.56
354.128	375.56
354.355	376.56
354.583	368.56
354.81	384.56
355.037	376.56
355.264	357.56
355.491	372.56
355.718	358.56
355.945	372.56
356.172	366.56
356.399	373.56
356.626	361.56
356.853	365.56
357.08	375.56
357.307	373.56
357.534	371.56
357.761	381.56
357.988	366.56
358.215	380.56
358.441	354.56
358.668	369.56
358.895	388.56
359.122	363.56
359.349	394.56
359.576	387.56
359.802	394.56
360.029	386.56
360.256	389.56
360.483	394.56
360.709	411.56
360.936	376.56
361.163	360.56
361.39	384.56
361.616	388.56
361.843	390.56
362.07	370.56
362.296	384.56
362.523	385.56
362.749	397.56
362.976	368.56
363.203	356.56
363.429	370.56
363.656	387.56
363.882	363.56
364.109	366.56
364.335	356.56
364.562	364.56
364.788	381.56
365.015	375.56
365.241	384.56
365.468	385.56
365.694	394.56
365.92	382.56
366.147	382.56
366.373	369.56
366.599	380.56
366.826	379.56
367.052	386.56
367.278	379.56
367.505	357.56
367.731	375.56
367.957	368.56
368.184	373.56
368.41	380.56
368.636	370.56
368.862	405.56
369.089	387.56
369.315	372.56
369.541	370.56
369.767	374.56
369.993	379.56
370.219	372.56
370.445	351.56
370.672	379.56
370.898	366.56
371.124	390.56
371.35	392.56
371.576	383.56
371.802	395.56
372.028	381.56
372.254	373.56
372.48	391.56
372.706	402.56
372.932	396.56
373.158	399.56
373.384	398.56
373.61	406.56
373.835	399.56
374.061	391.56
374.287	386.56
374.513	386.56
374.739	398.56
374.965	405.56
375.191	418.56
375.416	412.56
375.642	404.56
375.868	420.56
376.094	390.56
376.319	400.56
376.545	398.56
376.771	392.56
376.997	388.56
377.222	404.56
377.448	381.56
377.674	396.56
377.899	385.56
378.125	390.56
378.35	383.56
378.576	389.56
378.802	378.56
379.027	394.56
379.253	396.56
379.478	392.56
379.704	371.56
379.929	368.56
380.155	377.56
380.38	379.56
380.606	387.56
380.831	389.56
381.057	393.56
381.282	413.56
381.507	406.56
381.733	396.56
381.958	393.56
382.184	398.56
382.409	392.56
382.634	402.56
382.86	412.56
383.085	380.56
383.31	433.56
383.535	420.56
383.761	403.56
383.986	416.56
384.211	428.56
384.436	418.56
384.662	441.56
384.887	430.56
385.112	421.56
385.337	457.56
385.562	415.56
385.787	432.56
386.013	451.56
386.238	437.56
386.463	434.56
386.688	428.56
386.913	417.56
387.138	464.56
387.363	440.56
387.588	442.56
387.813	448.56
388.038	434.56
388.263	430.56
388.488	462.56
388.713	428.56
388.938	435.56
389.163	450.56
389.387	448.56
389.612	441.56
389.837	422.56
390.062	440.56
390.287	433.56
390.512	445.56
390.736	438.56
390.961	442.56
391.186	446.56
391.411	427.56
391.636	452.56
391.86	442.56
392.085	452.56
392.31	456.56
392.534	465.56
392.759	460.56
392.984	459.56
393.208	454.56
393.433	458.56
393.658	444.56
393.882	452.56
394.107	445.56
394.331	461.56
394.556	455.56
394.78	469.56
395.005	448.56
395.229	459.56
395.454	480.56
395.678	466.56
395.903	465.56
396.127	504.56
396.352	489.56
396.576	471.56
396.801	445.56
397.025	483.56
397.249	474.56
397.474	475.56
397.698	498.56
397.922	468.56
398.147	498.56
398.371	494.56
398.595	517.56
398.82	517.56
399.044	539.56
399.268	542.56
399.492	605.56
399.717	662.56
399.941	646.56
400.165	653.56
400.389	648.56
400.613	582.56
400.837	553.56
401.062	535.56
401.286	529.56
401.51	500.56
401.734	508.56
401.958	532.56
402.182	518.56
402.406	529.56
402.63	543.56
402.854	520.56
403.078	553.56
403.302	529.56
403.526	573.56
403.75	540.56
403.974	551.56
404.198	546.56
404.422	537.56
404.645	555.56
404.869	535.56
405.093	594.56
405.317	590.56
405.541	593.56
405.765	550.56
405.988	563.56
406.212	558.56
406.436	572.56
406.66	587.56
406.883	582.56
407.107	590.56
407.331	635.56
407.555	668.56
407.778	701.56
408.002	632.56
408.226	585.56
408.449	591.56
408.673	569.56
408.896	571.56
409.12	593.56
409.344	602.56
409.567	553.56
409.791	552.56
410.014	548.56
410.238	557.56
410.461	561.56
410.685	544.56
410.908	530.56
411.132	557.56
411.355	572.56
411.578	552.56
411.802	545.56
412.025	524.56
412.249	540.56
412.472	557.56
412.695	562.56
412.919	554.56
413.142	518.56
413.365	539.56
413.589	525.56
413.812	521.56
414.035	509.56
414.258	504.56
414.482	517.56
414.705	482.56
414.928	515.56
415.151	509.56
415.374	513.56
415.597	519.56
415.821	514.56
416.044	500.56
416.267	492.56
416.49	502.56
416.713	501.56
416.936	514.56
417.159	481.56
417.382	502.56
417.605	499.56
417.828	520.56
418.051	485.56
418.274	514.56
418.497	503.56
418.72	486.56
418.943	516.56
419.166	505.56
419.389	564.56
419.611	543.56
419.834	542.56
420.057	516.56
420.28	549.56
420.503	536.56
420.726	518.56
420.948	524.56
421.171	555.56
421.394	549.56
421.617	536.56
421.839	522.56
422.062	514.56
422.285	513.56
422.507	571.56
422.73	614.56
422.953	600.56
423.175	552.56
423.398	535.56
423.621	512.56
423.843	563.56
424.066	549.56
424.288	557.56
424.511	550.56
424.733	589.56
424.956	617.56
425.178	594.56
425.401	615.56
425.623	603.56
425.846	561.56
426.068	539.56
426.291	532.56
426.513	519.56
426.735	521.56
426.958	555.56
427.18	594.56
427.402	673.56
427.625	717.56
427.847	633.56
428.069	581.56
428.292	538.56
428.514	483.56
428.736	506.56
428.958	496.56
429.181	488.56
429.403	484.56
429.625	482.56
429.847	509.56
430.069	557.56
430.292	533.56
430.514	486.56
430.736	485.56
430.958	485.56
431.18	485.56
431.402	474.56
431.624	486.56
431.846	466.56
432.068	467.56
432.29	471.56
432.512	488.56
432.734	464.56
432.956	469.56
433.178	489.56
433.4	478.56
433.622	467.56
433.844	493.56
434.066	498.56
434.287	477.56
434.509	484.56
434.731	496.56
434.953	498.56
435.175	504.56
435.397	539.56
435.618	531.56
435.84	540.56
436.062	590.56
436.284	639.56
436.505	562.56
436.727	544.56
436.949	540.56
437.17	500.56
437.392	496.56
437.614	518.56
437.835	487.56
438.057	547.56
438.278	606.56
438.5	600.56
438.721	651.56
438.943	638.56
439.165	537.56
439.386	481.56
439.608	520.56
439.829	503.56
440.05	508.56
440.272	557.56
440.493	530.56
440.715	515.56
440.936	498.56
441.158	509.56
441.379	508.56
441.6	536.56
441.822	517.56
442.043	551.56
442.264	604.56
442.486	608.56
442.707	550.56
442.928	523.56
443.149	530.56
443.371	551.56
443.592	540.56
443.813	640.56
444.034	672.56
444.255	603.56
444.476	570.56
444.698	561.56
444.919	585.56
445.14	668.56
445.361	600.56
445.582	569.56
445.803	585.56
446.024	620.56
446.245	640.56
446.466	585.56
446.687	519.56
446.908	510.56
447.129	505.56
447.35	467.56
447.571	498.56
447.792	470.56
448.013	481.56
448.234	474.56
448.455	488.56
448.675	576.56
448.896	644.56
449.117	586.56
449.338	523.56
449.559	610.56
449.779	647.56
450	568.56
450.221	494.56
450.442	473.56
450.662	440.56
450.883	433.56
451.104	470.56
451.324	456.56
451.545	438.56
451.766	436.56
451.986	444.56
452.207	422.56
452.428	408.56
452.648	437.56
452.869	420.56
453.089	443.56
453.31	444.56
453.53	415.56
453.751	439.56
453.971	452.56
454.192	437.56
454.412	442.56
454.633	406.56
454.853	419.56
455.073	413.56
455.294	435.56
455.514	459.56
455.734	457.56
455.955	433.56
456.175	403.56
456.395	400.56
456.616	433.56
456.836	421.56
457.056	418.56
457.276	421.56
457.497	420.56
457.717	410.56
457.937	434.56
458.157	422.56
458.377	433.56
458.598	426.56
458.818	481.56
459.038	494.56
459.258	516.56
459.478	485.56
459.698	457.56
459.918	476.56
460.138	496.56
460.358	489.56
460.578	504.56
460.798	507.56
461.018	504.56
461.238	521.56
461.458	496.56
461.678	515.56
461.898	529.56
462.118	512.56
462.338	531.56
462.558	530.56
462.777	564.56
462.997	582.56
463.217	606.56
463.437	604.56
463.657	600.56
463.876	577.56
464.096	588.56
464.316	567.56
464.536	572.56
464.755	553.56
464.975	544.56
465.195	534.56
465.414	544.56
465.634	504.56
465.854	501.56
466.073	480.56
466.293	468.56
466.512	464.56
466.732	466.56
466.951	463.56
467.171	436.56
467.391	462.56
467.61	459.56
467.829	450.56
468.049	469.56
468.268	460.56
468.488	461.56
468.707	433.56
468.927	456.56
469.146	426.56
469.365	450.56
469.585	446.56
469.804	471.56
470.023	454.56
470.243	467.56
470.462	472.56
470.681	448.56
470.901	481.56
471.12	447.56
471.339	443.56
471.558	458.56
471.777	460.56
471.997	451.56
472.216	461.56
472.435	482.56
472.654	456.56
472.873	457.56
473.092	447.56
473.311	434.56
473.53	442.56
473.749	454.56
473.968	468.56
474.187	518.56
474.406	536.56
474.625	493.56
474.844	457.56
475.063	450.56
475.282	462.56
475.501	455.56
475.72	460.56
475.939	465.56
476.158	469.56
476.377	482.56
476.596	482.56
476.814	469.56
477.033	481.56
477.252	468.56
477.471	479.56
477.69	502.56
477.908	514.56
478.127	517.56
478.346	496.56
478.564	516.56
478.783	525.56
479.002	537.56
479.22	547.56
479.439	547.56
479.658	552.56
479.876	550.56
480.095	573.56
480.313	578.56
480.532	566.56
480.751	570.56
480.969	566.56
481.188	577.56
481.406	578.56
481.624	567.56
481.843	561.56
482.061	552.56
482.28	538.56
482.498	526.56
482.717	522.56
482.935	524.56
483.153	525.56
483.372	509.56
483.59	531.56
483.808	525.56
484.027	536.56
484.245	540.56
484.463	549.56
484.681	560.56
484.9	532.56
485.118	536.56
485.336	562.56
485.554	553.56
485.772	557.56
485.99	570.56
486.209	559.56
486.427	560.56
486.645	568.56
486.863	569.56
487.081	574.56
487.299	555.56
487.517	570.56
487.735	564.56
487.953	557.56
488.171	579.56
488.389	573.56
488.607	565.56
488.825	549.56
489.043	574.56
489.261	577.56
489.479	570.56
489.696	560.56
489.914	584.56
490.132	567.56
490.35	580.56
490.568	599.56
490.786	600.56
491.003	565.56
491.221	600.56
491.439	600.56
491.657	605.56
491.874	594.56
492.092	600.56
492.31	578.56
492.527	615.56
492.745	621.56
492.963	596.56
493.18	625.56
493.398	616.56
493.615	629.56
493.833	612.56
494.05	630.56
494.268	594.56
494.485	627.56
494.703	638.56
494.92	626.56
495.138	609.56
495.355	613.56
495.573	619.56
495.79	633.56
496.008	621.56
496.225	661.56
496.442	661.56
496.66	668.56
496.877	640.56
497.094	645.56
497.312	662.56
497.529	656.56
497.746	678.56
497.963	698.56
498.181	740.56
498.398	769.56
498.615	781.56
498.832	796.56
499.049	820.56
499.267	844.56
499.484	895.56
499.701	946.56
499.918	984.56
500.135	1052.56
500.352	1144.56
500.569	1176.56
500.786	1211.56
501.003	1145.56
501.22	1090.56
501.437	1010.56
501.654	961.56
501.871	917.56
502.088	841.56
502.305	812.56
502.522	800.56
502.739	755.56
502.956	738.56
503.172	724.56
503.389	714.56
503.606	699.56
503.823	669.56
504.04	721.56
504.256	674.56
504.473	683.56
504.69	676.56
504.907	700.56
505.123	673.56
505.34	652.56
505.557	613.56
505.773	628.56
505.99	614.56
506.207	620.56
506.423	612.56
506.64	571.56
506.856	587.56
507.073	576.56
507.289	584.56
507.506	582.56
507.722	559.56
507.939	581.56
508.155	572.56
508.372	576.56
508.588	529.56
508.805	529.56
509.021	553.56
509.238	562.56
509.454	543.56
509.67	563.56
509.887	552.56
510.103	536.56
510.319	565.56
510.536	599.56
510.752	708.56
510.968	653.56
511.184	548.56
511.401	547.56
511.617	537.56
511.833	545.56
512.049	532.56
512.265	526.56
512.481	492.56
512.698	539.56
512.914	531.56
513.13	527.56
513.346	535.56
513.562	530.56
513.778	527.56
513.994	541.56
514.21	529.56
514.426	538.56
514.642	555.56
514.858	550.56
515.074	544.56
515.29	599.56
515.506	691.56
515.721	630.56
515.937	575.56
516.153	557.56
516.369	571.56
516.585	572.56
516.801	571.56
517.016	577.56
517.232	586.56
517.448	621.56
517.664	624.56
517.879	607.56
518.095	600.56
518.311	611.56
518.527	596.56
518.742	587.56
518.958	569.56
519.173	569.56
519.389	557.56
519.605	543.56
519.82	557.56
520.036	568.56
520.251	554.56
520.467	539.56
520.682	532.56
520.898	526.56
521.113	552.56
521.329	529.56
521.544	562.56
521.76	605.56
521.975	757.56
522.19	737.56
522.406	587.56
522.621	532.56
522.836	506.56
523.052	522.56
523.267	485.56
523.482	497.56
523.698	487.56
523.913	493.56
524.128	498.56
524.343	476.56
524.559	467.56
524.774	475.56
524.989	499.56
525.204	483.56
525.419	467.56
525.634	462.56
525.849	465.56
526.064	478.56
526.28	460.56
526.495	449.56
526.71	463.56
526.925	443.56
527.14	456.56
527.355	442.56
527.57	465.56
527.785	443.56
527.999	462.56
528.214	459.56
528.429	458.56
528.644	448.56
528.859	460.56
529.074	460.56
529.289	451.56
529.503	475.56
529.718	467.56
529.933	456.56
530.148	450.56
530.363	455.56
530.577	483.56
530.792	453.56
531.007	444.56
531.221	442.56
531.436	449.56
531.651	467.56
531.865	449.56
532.08	458.56
532.295	469.56
532.509	454.56
532.724	452.56
532.938	456.56
533.153	449.56
533.367	442.56
533.582	437.56
533.796	437.56
534.011	458.56
534.225	438.56
534.44	455.56
534.654	457.56
534.868	445.56
535.083	426.56
535.297	437.56
535.511	443.56
535.726	425.56
535.94	432.56
536.154	442.56
536.369	434.56
536.583	455.56
536.797	419.56
537.011	439.56
537.225	416.56
537.44	428.56
537.654	428.56
537.868	443.56
538.082	420.56
538.296	432.56
538.51	414.56
538.724	419.56
538.938	436.56
539.153	425.56
539.367	439.56
539.581	434.56
539.795	439.56
540.009	426.56
540.222	425.56
540.436	439.56
540.65	422.56
540.864	418.56
541.078	451.56
541.292	430.56
541.506	423.56
541.72	417.56
541.934	410.56
542.147	407.56
542.361	431.56
542.575	422.56
542.789	416.56
543.002	418.56
543.216	429.56
543.43	424.56
543.644	426.56
543.857	443.56
544.071	434.56
544.285	409.56
544.498	447.56
544.712	446.56
544.925	401.56
545.139	426.56
545.352	404.56
545.566	410.56
545.779	424.56
545.993	427.56
546.206	432.56
546.42	434.56
546.633	439.56
546.847	450.56
547.06	426.56
547.274	420.56
547.487	429.56
547.7	430.56
547.914	416.56
548.127	432.56
548.34	429.56
548.554	416.56
548.767	421.56
548.98	428.56
549.193	434.56
549.407	437.56
549.62	424.56
549.833	428.56
550.046	434.56
550.259	434.56
550.473	423.56
550.686	420.56
550.899	402.56
551.112	421.56
551.325	442.56
551.538	432.56
551.751	429.56
551.964	434.56
552.177	410.56
552.39	428.56
552.603	440.56
552.816	428.56
553.029	408.56
553.242	445.56
553.455	436.56
553.667	444.56
553.88	438.56
554.093	421.56
554.306	433.56
554.519	428.56
554.732	436.56
554.944	418.56
555.157	425.56
555.37	419.56
555.583	409.56
555.795	406.56
556.008	414.56
556.221	406.56
556.433	398.56
556.646	392.56
556.859	392.56
557.071	379.56
557.284	393.56
557.496	379.56
557.709	372.56
557.921	387.56
558.134	398.56
558.346	397.56
558.559	392.56
558.771	381.56
558.984	391.56
559.196	378.56
559.409	363.56
559.621	374.56
559.833	390.56
560.046	362.56
560.258	370.56
560.47	370.56
560.683	384.56
560.895	379.56
561.107	371.56
561.32	385.56
561.532	378.56
561.744	367.56
561.956	367.56
562.168	393.56
562.381	368.56
562.593	372.56
562.805	363.56
563.017	363.56
563.229	346.56
563.441	376.56
563.653	398.56
563.865	380.56
564.077	395.56
564.289	388.56
564.501	400.56
564.713	412.56
564.925	415.56
565.137	411.56
565.349	391.56
565.561	428.56
565.773	430.56
565.985	456.56
566.197	442.56
566.408	456.56
566.62	484.56
566.832	532.56
567.044	541.56
567.255	541.56
567.467	530.56
567.679	552.56
567.891	577.56
568.102	556.56
568.314	538.56
568.526	534.56
568.737	523.56
568.949	462.56
569.161	466.56
569.372	425.56
569.584	410.56
569.795	396.56
570.007	392.56
570.218	417.56
570.43	422.56
570.641	387.56
570.853	398.56
571.064	369.56
571.276	397.56
571.487	384.56
571.698	370.56
571.91	373.56
572.121	386.56
572.333	358.56
572.544	367.56
572.755	370.56
572.966	324.56
573.178	338.56
573.389	338.56
573.6	329.56
573.811	337.56
574.023	341.56
574.234	334.56
574.445	338.56
574.656	338.56
574.867	330.56
575.078	331.56
575.289	332.56
575.501	331.56
575.712	326.56
575.923	301.56
576.134	309.56
576.345	328.56
576.556	324.56
576.767	339.56
576.978	332.56
577.188	322.56
577.399	299.56
577.61	285.56
577.821	317.56
578.032	321.56
578.243	339.56
578.454	400.56
578.665	334.56
578.875	306.56
579.086	313.56
579.297	290.56
579.508	299.56
579.718	320.56
579.929	314.56
580.14	292.56
580.35	300.56
580.561	306.56
580.772	304.56
580.982	295.56
581.193	294.56
581.403	298.56
581.614	289.56
581.825	284.56
582.035	279.56
582.246	304.56
582.456	292.56
582.667	292.56
582.877	302.56
583.087	306.56
583.298	302.56
583.508	295.56
583.719	285.56
583.929	310.56
584.139	307.56
584.35	306.56
584.56	285.56
584.77	301.56
584.981	301.56
585.191	302.56
585.401	293.56
585.611	293.56
585.821	294.56
586.032	283.56
586.242	280.56
586.452	297.56
586.662	298.56
586.872	299.56
587.082	283.56
587.292	292.56
587.502	290.56
587.713	281.56
587.923	289.56
588.133	297.56
588.343	306.56
588.553	290.56
588.762	283.56
588.972	285.56
589.182	396.56
589.392	372.56
589.602	314.56
589.812	369.56
590.022	333.56
590.232	294.56
590.441	298.56
590.651	305.56
590.861	293.56
591.071	290.56
591.281	281.56
591.49	289.56
591.7	311.56
591.91	308.56
592.119	322.56
592.329	311.56
592.539	312.56
592.748	337.56
592.958	325.56
593.167	326.56
593.377	332.56
593.587	355.56
593.796	348.56
594.006	347.56
594.215	323.56
594.424	326.56
594.634	331.56
594.843	320.56
595.053	320.56
595.262	308.56
595.472	304.56
595.681	298.56
595.89	317.56
596.1	296.56
596.309	289.56
596.518	280.56
596.727	289.56
596.937	292.56
597.146	269.56
597.355	269.56
597.564	256.56
597.774	270.56
597.983	268.56
598.192	281.56
598.401	256.56
598.61	266.56
598.819	281.56
599.028	263.56
599.237	263.56
599.446	268.56
599.655	267.56
599.864	272.56
600.073	250.56
600.282	281.56
600.491	265.56
600.7	266.56
600.909	272.56
601.118	261.56
601.327	246.56
601.536	262.56
601.745	259.56
601.953	255.56
602.162	252.56
602.371	257.56
602.58	245.56
602.789	253.56
602.997	242.56
603.206	247.56
603.415	247.56
603.623	245.56
603.832	233.56
604.041	249.56
604.249	249.56
604.458	233.56
604.666	240.56
604.875	227.56
605.084	246.56
605.292	245.56
605.501	230.56
605.709	232.56
605.918	248.56
606.126	232.56
606.334	244.56
606.543	235.56
606.751	243.56
606.96	237.56
607.168	225.56
607.376	232.56
607.585	241.56
607.793	252.56
608.001	240.56
608.21	235.56
608.418	233.56
608.626	235.56
608.834	234.56
609.043	243.56
609.251	230.56
609.459	243.56
609.667	232.56
609.875	240.56
610.083	246.56
610.291	231.56
610.499	238.56
610.707	220.56
610.916	224.56
611.124	230.56
611.332	228.56
611.54	251.56
611.748	236.56
611.955	235.56
612.163	225.56
612.371	237.56
612.579	232.56
612.787	229.56
612.995	227.56
613.203	241.56
613.411	230.56
613.618	225.56
613.826	235.56
614.034	228.56
614.242	241.56
614.449	221.56
614.657	241.56
614.865	216.56
615.072	221.56
615.28	208.56
615.488	229.56
615.695	232.56
615.903	242.56
616.111	234.56
616.318	251.56
616.526	230.56
616.733	235.56
616.941	231.56
617.148	219.56
617.356	226.56
617.563	233.56
617.771	230.56
617.978	234.56
618.185	225.56
618.393	225.56
618.6	224.56
618.807	219.56
619.015	225.56
619.222	215.56
619.429	228.56
619.637	209.56
619.844	226.56
620.051	215.56
620.258	231.56
620.466	213.56
620.673	216.56
620.88	218.56
621.087	242.56
621.294	218.56
621.501	238.56
621.708	224.56
621.915	222.56
622.122	224.56
622.329	225.56
622.536	219.56
622.743	214.56
622.95	216.56
623.157	215.56
623.364	194.56
623.571	216.56
623.778	222.56
623.985	221.56
624.192	226.56
624.399	214.56
624.606	206.56
624.812	187.56
625.019	200.56
625.226	199.56
625.433	203.56
625.639	200.56
625.846	185.56
626.053	207.56
626.259	199.56
626.466	199.56
626.673	216.56
626.879	195.56
627.086	205.56
627.293	179.56
627.499	201.56
627.706	200.56
627.912	188.56
628.119	198.56
628.325	188.56
628.532	200.56
628.738	181.56
628.945	199.56
629.151	192.56
629.357	192.56
629.564	185.56
629.77	206.56
629.976	198.56
630.183	188.56
630.389	212.56
630.595	198.56
630.802	194.56
631.008	184.56
631.214	196.56
631.42	205.56
631.627	185.56
631.833	184.56
632.039	196.56
632.245	188.56
632.451	196.56
632.657	199.56
632.863	180.56
633.069	192.56
633.275	190.56
633.481	155.56
633.688	170.56
633.893	178.56
634.099	194.56
634.305	184.56
634.511	160.56
634.717	170.56
634.923	190.56
635.129	187.56
635.335	183.56
635.541	170.56
635.747	189.56
635.952	189.56
636.158	179.56
636.364	191.56
636.57	171.56
636.775	194.56
636.981	178.56
637.187	164.56
637.392	173.56
637.598	180.56
637.804	194.56
638.009	184.56
638.215	153.56
638.421	166.56
638.626	166.56
638.832	167.56
639.037	164.56
639.243	178.56
639.448	181.56
639.654	181.56
639.859	165.56
640.065	177.56
640.27	178.56
640.475	165.56
640.681	167.56
640.886	162.56
641.091	180.56
641.297	168.56
641.502	182.56
641.707	156.56
641.913	164.56
642.118	176.56
642.323	180.56
642.528	166.56
642.733	170.56
642.939	178.56
643.144	167.56
643.349	164.56
643.554	158.56
643.759	171.56
643.964	157.56
644.169	170.56
644.374	154.56
644.579	165.56
644.784	154.56
644.989	160.56
645.194	167.56
645.399	173.56
645.604	160.56
645.809	163.56
646.014	148.56
646.219	159.56
646.423	168.56
646.628	181.56
646.833	167.56
647.038	164.56
647.243	161.56
647.447	182.56
647.652	174.56
647.857	171.56
648.062	180.56
648.266	158.56
648.471	188.56
648.676	164.56
648.88	179.56
649.085	190.56
649.289	161.56
649.494	165.56
649.698	177.56
649.903	169.56
650.107	176.56
650.312	171.56
650.516	166.56
650.721	155.56
650.925	150.56
651.13	166.56
651.334	149.56
651.539	167.56
651.743	161.56
651.947	150.56
652.152	152.56
652.356	155.56
652.56	165.56
652.764	148.56
652.969	161.56
653.173	151.56
653.377	149.56
653.581	132.56
653.785	136.56
653.99	145.56
654.194	146.56
654.398	148.56
654.602	160.56
654.806	125.56
655.01	168.56
655.214	134.56
655.418	143.56
655.622	148.56
655.826	151.56
656.03	145.56
656.234	160.56
656.438	157.56
656.642	157.56
656.846	158.56
657.049	147.56
657.253	126.56
657.457	133.56
657.661	132.56
657.865	125.56
658.068	133.56
658.272	114.56
658.476	119.56
658.68	114.56
658.883	113.56
659.087	107.56
659.291	107.56
659.494	100.56
659.698	91.56
659.901	92.56
660.105	99.56
660.309	111.56
660.512	114.56
660.716	84.56
660.919	113.56
661.123	104.56
661.326	86.56
661.53	88.56
661.733	91.56
661.936	85.56
662.14	85.56
662.343	90.56
662.546	91.56
662.75	92.56
662.953	88.56
663.156	86.56
663.36	92.56
663.563	82.56
663.766	86.56
663.969	91.56
664.173	90.56
664.376	92.56
664.579	90.56
664.782	74.56
664.985	65.56
665.188	80.56
665.391	83.56
665.594	76.56
665.797	71.56
666	67.56
666.203	101.56
666.406	83.56
666.609	84.56
666.812	86.56
667.015	82.56
667.218	83.56
667.421	76.56
667.624	91.56
667.827	90.56
668.03	77.56
668.232	86.56
668.435	78.56
668.638	76.56
668.841	84.56
669.043	84.56
669.246	74.56
669.449	95.56
669.651	82.56
669.854	91.56
670.057	71.56
670.259	97.56
670.462	95.56
670.665	87.56
670.867	78.56
671.07	88.56
671.272	77.56
671.475	94.56
671.677	87.56
671.88	76.56
672.082	89.56
672.284	85.56
672.487	78.56
672.689	92.56
672.892	80.56
