Data from 1962.PennyLincolnUp.Lamp.En5.5.200Scan.071719.P1._HRD10591_13-53-59-061.txt Node
Date: Thu Jul 18 13:53:59 EDT 2019
User: cochatt
Spectrometer: HR+D1059
Trigger mode: 1
Integration Time (sec): 1.000000E-1
Scans to average: 1
Electric dark correction enabled: true
Nonlinearity correction enabled: false
Boxcar width: 0
XAxis mode: Wavelengths
Number of Pixels in Spectrum: 2048
>>>>>Begin Spectral Data<<<<<
223.165	-19.81
223.4	-19.81
223.635	-19.81
223.869	-34.81
224.104	-8.81
224.338	-22.81
224.573	-2.81
224.808	-11.81
225.042	4.19
225.277	0.19
225.511	-2.81
225.746	9.19
225.98	3.19
226.215	8.19
226.449	21.19
226.683	14.19
226.918	29.19
227.152	14.19
227.387	42.19
227.621	33.19
227.856	47.19
228.09	51.19
228.324	55.19
228.559	58.19
228.793	64.19
229.027	83.19
229.262	83.19
229.496	75.19
229.73	104.19
229.964	112.19
230.199	107.19
230.433	93.19
230.667	107.19
230.901	109.19
231.136	90.19
231.37	97.19
231.604	107.19
231.838	121.19
232.072	106.19
232.306	104.19
232.541	108.19
232.775	102.19
233.009	115.19
233.243	119.19
233.477	123.19
233.711	109.19
233.945	108.19
234.179	111.19
234.413	121.19
234.647	112.19
234.881	128.19
235.115	116.19
235.349	117.19
235.583	113.19
235.817	109.19
236.051	123.19
236.285	91.19
236.519	117.19
236.753	117.19
236.987	122.19
237.221	149.19
237.455	178.19
237.689	151.19
237.922	121.19
238.156	116.19
238.39	124.19
238.624	123.19
238.858	109.19
239.091	117.19
239.325	115.19
239.559	108.19
239.793	123.19
240.027	113.19
240.26	127.19
240.494	147.19
240.728	139.19
240.961	131.19
241.195	130.19
241.429	135.19
241.662	132.19
241.896	124.19
242.13	118.19
242.363	114.19
242.597	128.19
242.83	127.19
243.064	113.19
243.298	122.19
243.531	125.19
243.765	140.19
243.998	131.19
244.232	136.19
244.465	131.19
244.699	140.19
244.932	144.19
245.166	122.19
245.399	143.19
245.633	147.19
245.866	136.19
246.099	136.19
246.333	152.19
246.566	128.19
246.8	151.19
247.033	115.19
247.266	142.19
247.5	139.19
247.733	155.19
247.966	152.19
248.2	145.19
248.433	148.19
248.666	141.19
248.899	167.19
249.133	149.19
249.366	169.19
249.599	151.19
249.832	158.19
250.066	156.19
250.299	168.19
250.532	163.19
250.765	173.19
250.998	182.19
251.231	183.19
251.465	171.19
251.698	177.19
251.931	181.19
252.164	178.19
252.397	183.19
252.63	154.19
252.863	180.19
253.096	193.19
253.329	181.19
253.562	190.19
253.795	200.19
254.028	177.19
254.261	193.19
254.494	179.19
254.727	207.19
254.96	223.19
255.193	225.19
255.426	205.19
255.659	188.19
255.892	194.19
256.124	188.19
256.357	207.19
256.59	200.19
256.823	185.19
257.056	185.19
257.289	198.19
257.521	211.19
257.754	177.19
257.987	175.19
258.22	183.19
258.452	177.19
258.685	197.19
258.918	193.19
259.151	205.19
259.383	201.19
259.616	194.19
259.849	200.19
260.081	202.19
260.314	211.19
260.547	213.19
260.779	213.19
261.012	218.19
261.244	190.19
261.477	189.19
261.71	217.19
261.942	209.19
262.175	195.19
262.407	176.19
262.64	206.19
262.872	206.19
263.105	194.19
263.337	185.19
263.57	191.19
263.802	196.19
264.035	200.19
264.267	202.19
264.499	200.19
264.732	200.19
264.964	204.19
265.197	212.19
265.429	195.19
265.661	195.19
265.894	225.19
266.126	210.19
266.358	171.19
266.591	199.19
266.823	215.19
267.055	195.19
267.287	195.19
267.52	202.19
267.752	203.19
267.984	203.19
268.216	213.19
268.448	223.19
268.681	211.19
268.913	221.19
269.145	228.19
269.377	240.19
269.609	218.19
269.841	213.19
270.073	234.19
270.306	231.19
270.538	255.19
270.77	280.19
271.002	263.19
271.234	267.19
271.466	249.19
271.698	255.19
271.93	277.19
272.162	267.19
272.394	267.19
272.626	245.19
272.858	237.19
273.09	239.19
273.322	237.19
273.553	256.19
273.785	235.19
274.017	264.19
274.249	232.19
274.481	222.19
274.713	251.19
274.945	257.19
275.176	245.19
275.408	243.19
275.64	257.19
275.872	258.19
276.104	257.19
276.335	238.19
276.567	244.19
276.799	247.19
277.031	261.19
277.262	278.19
277.494	269.19
277.726	256.19
277.957	263.19
278.189	256.19
278.421	265.19
278.652	261.19
278.884	277.19
279.115	259.19
279.347	234.19
279.579	229.19
279.81	258.19
280.042	250.19
280.273	267.19
280.505	253.19
280.736	263.19
280.968	259.19
281.199	267.19
281.431	256.19
281.662	245.19
281.894	251.19
282.125	261.19
282.356	275.19
282.588	267.19
282.819	283.19
283.051	273.19
283.282	279.19
283.513	261.19
283.745	266.19
283.976	267.19
284.207	281.19
284.439	279.19
284.67	267.19
284.901	251.19
285.132	268.19
285.364	260.19
285.595	283.19
285.826	279.19
286.057	267.19
286.288	273.19
286.52	276.19
286.751	265.19
286.982	274.19
287.213	263.19
287.444	281.19
287.675	277.19
287.906	312.19
288.138	300.19
288.369	286.19
288.6	286.19
288.831	290.19
289.062	280.19
289.293	280.19
289.524	282.19
289.755	292.19
289.986	287.19
290.217	268.19
290.448	275.19
290.679	282.19
290.91	295.19
291.141	295.19
291.371	282.19
291.602	283.19
291.833	276.19
292.064	300.19
292.295	307.19
292.526	281.19
292.757	283.19
292.987	278.19
293.218	296.19
293.449	295.19
293.68	277.19
293.91	286.19
294.141	275.19
294.372	281.19
294.603	284.19
294.833	295.19
295.064	299.19
295.295	283.19
295.525	281.19
295.756	320.19
295.987	303.19
296.217	304.19
296.448	306.19
296.679	318.19
296.909	290.19
297.14	283.19
297.37	283.19
297.601	319.19
297.831	300.19
298.062	295.19
298.292	297.19
298.523	306.19
298.753	312.19
298.984	298.19
299.214	303.19
299.445	298.19
299.675	292.19
299.905	316.19
300.136	307.19
300.366	312.19
300.597	300.19
300.827	299.19
301.057	312.19
301.288	316.19
301.518	304.19
301.748	306.19
301.979	321.19
302.209	347.19
302.439	342.19
302.669	325.19
302.9	325.19
303.13	333.19
303.36	345.19
303.59	314.19
303.82	328.19
304.051	324.19
304.281	331.19
304.511	322.19
304.741	331.19
304.971	298.19
305.201	317.19
305.431	325.19
305.661	315.19
305.891	323.19
306.121	323.19
306.352	346.19
306.582	330.19
306.812	308.19
307.042	323.19
307.272	331.19
307.502	327.19
307.731	308.19
307.961	310.19
308.191	346.19
308.421	331.19
308.651	319.19
308.881	320.19
309.111	317.19
309.341	323.19
309.571	337.19
309.8	333.19
310.03	344.19
310.26	338.19
310.49	334.19
310.72	340.19
310.949	339.19
311.179	356.19
311.409	347.19
311.639	342.19
311.868	353.19
312.098	356.19
312.328	361.19
312.557	374.19
312.787	368.19
313.017	370.19
313.246	356.19
313.476	360.19
313.706	357.19
313.935	349.19
314.165	363.19
314.394	369.19
314.624	369.19
314.853	371.19
315.083	373.19
315.312	367.19
315.542	349.19
315.771	352.19
316.001	349.19
316.23	336.19
316.46	332.19
316.689	368.19
316.919	372.19
317.148	364.19
317.377	379.19
317.607	353.19
317.836	355.19
318.065	346.19
318.295	356.19
318.524	359.19
318.753	369.19
318.983	358.19
319.212	351.19
319.441	335.19
319.67	344.19
319.9	370.19
320.129	329.19
320.358	349.19
320.587	343.19
320.816	372.19
321.046	362.19
321.275	351.19
321.504	362.19
321.733	355.19
321.962	358.19
322.191	383.19
322.42	379.19
322.649	383.19
322.878	405.19
323.108	387.19
323.337	387.19
323.566	418.19
323.795	409.19
324.024	450.19
324.253	481.19
324.482	631.19
324.71	937.19
324.939	1297.19
325.168	1146.19
325.397	633.19
325.626	507.19
325.855	451.19
326.084	424.19
326.313	428.19
326.542	428.19
326.77	460.19
326.999	482.19
327.228	621.19
327.457	858.19
327.686	993.19
327.914	742.19
328.143	548.19
328.372	497.19
328.6	464.19
328.829	450.19
329.058	467.19
329.287	473.19
329.515	456.19
329.744	428.19
329.972	437.19
330.201	450.19
330.43	469.19
330.658	469.19
330.887	486.19
331.115	479.19
331.344	447.19
331.572	407.19
331.801	440.19
332.03	428.19
332.258	426.19
332.486	424.19
332.715	445.19
332.943	438.19
333.172	453.19
333.4	462.19
333.629	466.19
333.857	473.19
334.085	495.19
334.314	469.19
334.542	498.19
334.771	484.19
334.999	458.19
335.227	473.19
335.455	472.19
335.684	444.19
335.912	454.19
336.14	439.19
336.369	435.19
336.597	444.19
336.825	444.19
337.053	409.19
337.281	429.19
337.51	415.19
337.738	408.19
337.966	423.19
338.194	419.19
338.422	433.19
338.65	411.19
338.878	391.19
339.106	431.19
339.334	427.19
339.562	408.19
339.79	424.19
340.018	400.19
340.246	376.19
340.474	395.19
340.702	425.19
340.93	412.19
341.158	412.19
341.386	408.19
341.614	405.19
341.842	397.19
342.07	400.19
342.298	393.19
342.526	407.19
342.754	398.19
342.981	408.19
343.209	423.19
343.437	431.19
343.665	421.19
343.893	447.19
344.12	439.19
344.348	441.19
344.576	451.19
344.804	449.19
345.031	441.19
345.259	429.19
345.487	409.19
345.714	431.19
345.942	408.19
346.17	409.19
346.397	378.19
346.625	394.19
346.853	393.19
347.08	389.19
347.308	382.19
347.535	399.19
347.763	415.19
347.99	385.19
348.218	394.19
348.445	397.19
348.673	390.19
348.9	387.19
349.128	400.19
349.355	381.19
349.583	369.19
349.81	388.19
350.037	377.19
350.265	397.19
350.492	384.19
350.72	383.19
350.947	395.19
351.174	387.19
351.402	380.19
351.629	383.19
351.856	422.19
352.083	379.19
352.311	393.19
352.538	373.19
352.765	384.19
352.992	387.19
353.22	363.19
353.447	375.19
353.674	355.19
353.901	387.19
354.128	382.19
354.355	377.19
354.583	378.19
354.81	359.19
355.037	375.19
355.264	369.19
355.491	383.19
355.718	364.19
355.945	371.19
356.172	377.19
356.399	363.19
356.626	364.19
356.853	383.19
357.08	371.19
357.307	364.19
357.534	380.19
357.761	360.19
357.988	392.19
358.215	369.19
358.441	371.19
358.668	378.19
358.895	372.19
359.122	371.19
359.349	401.19
359.576	397.19
359.802	405.19
360.029	385.19
360.256	401.19
360.483	389.19
360.709	391.19
360.936	405.19
361.163	377.19
361.39	376.19
361.616	377.19
361.843	380.19
362.07	385.19
362.296	375.19
362.523	379.19
362.749	377.19
362.976	374.19
363.203	379.19
363.429	390.19
363.656	383.19
363.882	388.19
364.109	383.19
364.335	387.19
364.562	379.19
364.788	356.19
365.015	379.19
365.241	362.19
365.468	373.19
365.694	383.19
365.92	406.19
366.147	382.19
366.373	380.19
366.599	342.19
366.826	391.19
367.052	376.19
367.278	372.19
367.505	379.19
367.731	392.19
367.957	402.19
368.184	374.19
368.41	394.19
368.636	377.19
368.862	385.19
369.089	383.19
369.315	381.19
369.541	375.19
369.767	392.19
369.993	380.19
370.219	403.19
370.445	385.19
370.672	390.19
370.898	397.19
371.124	383.19
371.35	376.19
371.576	382.19
371.802	394.19
372.028	390.19
372.254	389.19
372.48	381.19
372.706	404.19
372.932	387.19
373.158	410.19
373.384	404.19
373.61	392.19
373.835	417.19
374.061	393.19
374.287	390.19
374.513	403.19
374.739	375.19
374.965	423.19
375.191	419.19
375.416	415.19
375.642	397.19
375.868	409.19
376.094	401.19
376.319	386.19
376.545	405.19
376.771	379.19
376.997	379.19
377.222	388.19
377.448	395.19
377.674	399.19
377.899	378.19
378.125	389.19
378.35	391.19
378.576	388.19
378.802	396.19
379.027	375.19
379.253	373.19
379.478	402.19
379.704	385.19
379.929	388.19
380.155	375.19
380.38	400.19
380.606	388.19
380.831	397.19
381.057	404.19
381.282	391.19
381.507	410.19
381.733	405.19
381.958	399.19
382.184	388.19
382.409	409.19
382.634	415.19
382.86	408.19
383.085	417.19
383.31	403.19
383.535	412.19
383.761	419.19
383.986	417.19
384.211	431.19
384.436	447.19
384.662	410.19
384.887	443.19
385.112	449.19
385.337	444.19
385.562	456.19
385.787	441.19
386.013	468.19
386.238	440.19
386.463	440.19
386.688	445.19
386.913	434.19
387.138	456.19
387.363	457.19
387.588	443.19
387.813	428.19
388.038	428.19
388.263	458.19
388.488	444.19
388.713	439.19
388.938	453.19
389.163	432.19
389.387	442.19
389.612	435.19
389.837	456.19
390.062	443.19
390.287	451.19
390.512	429.19
390.736	437.19
390.961	467.19
391.186	451.19
391.411	437.19
391.636	485.19
391.86	474.19
392.085	499.19
392.31	485.19
392.534	475.19
392.759	443.19
392.984	473.19
393.208	465.19
393.433	480.19
393.658	456.19
393.882	461.19
394.107	451.19
394.331	443.19
394.556	453.19
394.78	458.19
395.005	474.19
395.229	474.19
395.454	473.19
395.678	472.19
395.903	477.19
396.127	469.19
396.352	488.19
396.576	472.19
396.801	443.19
397.025	476.19
397.249	472.19
397.474	473.19
397.698	498.19
397.922	519.19
398.147	518.19
398.371	532.19
398.595	533.19
398.82	507.19
399.044	513.19
399.268	550.19
399.492	610.19
399.717	660.19
399.941	670.19
400.165	670.19
400.389	648.19
400.613	579.19
400.837	565.19
401.062	550.19
401.286	518.19
401.51	525.19
401.734	508.19
401.958	535.19
402.182	523.19
402.406	522.19
402.63	543.19
402.854	523.19
403.078	529.19
403.302	543.19
403.526	545.19
403.75	551.19
403.974	577.19
404.198	545.19
404.422	562.19
404.645	579.19
404.869	581.19
405.093	587.19
405.317	617.19
405.541	615.19
405.765	607.19
405.988	568.19
406.212	561.19
406.436	554.19
406.66	603.19
406.883	554.19
407.107	593.19
407.331	642.19
407.555	701.19
407.778	664.19
408.002	621.19
408.226	600.19
408.449	594.19
408.673	587.19
408.896	619.19
409.12	610.19
409.344	598.19
409.567	552.19
409.791	557.19
410.014	529.19
410.238	549.19
410.461	544.19
410.685	552.19
410.908	528.19
411.132	583.19
411.355	604.19
411.578	589.19
411.802	562.19
412.025	527.19
412.249	543.19
412.472	568.19
412.695	611.19
412.919	578.19
413.142	543.19
413.365	549.19
413.589	536.19
413.812	499.19
414.035	541.19
414.258	508.19
414.482	532.19
414.705	518.19
414.928	524.19
415.151	514.19
415.374	509.19
415.597	536.19
415.821	497.19
416.044	512.19
416.267	535.19
416.49	521.19
416.713	489.19
416.936	521.19
417.159	497.19
417.382	534.19
417.605	484.19
417.828	526.19
418.051	523.19
418.274	520.19
418.497	509.19
418.72	516.19
418.943	496.19
419.166	543.19
419.389	565.19
419.611	560.19
419.834	556.19
420.057	559.19
420.28	534.19
420.503	501.19
420.726	528.19
420.948	516.19
421.171	550.19
421.394	570.19
421.617	535.19
421.839	531.19
422.062	516.19
422.285	510.19
422.507	563.19
422.73	628.19
422.953	604.19
423.175	560.19
423.398	543.19
423.621	540.19
423.843	560.19
424.066	560.19
424.288	556.19
424.511	583.19
424.733	584.19
424.956	655.19
425.178	625.19
425.401	621.19
425.623	641.19
425.846	567.19
426.068	533.19
426.291	539.19
426.513	538.19
426.735	546.19
426.958	571.19
427.18	617.19
427.402	693.19
427.625	738.19
427.847	648.19
428.069	595.19
428.292	572.19
428.514	515.19
428.736	513.19
428.958	508.19
429.181	497.19
429.403	498.19
429.625	471.19
429.847	532.19
430.069	567.19
430.292	564.19
430.514	517.19
430.736	499.19
430.958	472.19
431.18	469.19
431.402	484.19
431.624	471.19
431.846	482.19
432.068	486.19
432.29	487.19
432.512	497.19
432.734	497.19
432.956	489.19
433.178	483.19
433.4	481.19
433.622	497.19
433.844	495.19
434.066	476.19
434.287	491.19
434.509	488.19
434.731	495.19
434.953	511.19
435.175	516.19
435.397	510.19
435.618	565.19
435.84	556.19
436.062	614.19
436.284	660.19
436.505	569.19
436.727	535.19
436.949	514.19
437.17	501.19
437.392	508.19
437.614	504.19
437.835	504.19
438.057	577.19
438.278	629.19
438.5	633.19
438.721	683.19
438.943	704.19
439.165	561.19
439.386	539.19
439.608	541.19
439.829	495.19
440.05	547.19
440.272	563.19
440.493	554.19
440.715	525.19
440.936	509.19
441.158	506.19
441.379	519.19
441.6	520.19
441.822	503.19
442.043	559.19
442.264	620.19
442.486	617.19
442.707	578.19
442.928	554.19
443.149	561.19
443.371	567.19
443.592	594.19
443.813	654.19
444.034	691.19
444.255	595.19
444.476	543.19
444.698	557.19
444.919	566.19
445.14	693.19
445.361	594.19
445.582	563.19
445.803	580.19
446.024	651.19
446.245	649.19
446.466	604.19
446.687	550.19
446.908	519.19
447.129	491.19
447.35	490.19
447.571	489.19
447.792	489.19
448.013	484.19
448.234	497.19
448.455	517.19
448.675	587.19
448.896	656.19
449.117	593.19
449.338	586.19
449.559	652.19
449.779	732.19
450	595.19
450.221	507.19
450.442	477.19
450.662	479.19
450.883	476.19
451.104	483.19
451.324	441.19
451.545	455.19
451.766	451.19
451.986	467.19
452.207	436.19
452.428	432.19
452.648	426.19
452.869	444.19
453.089	441.19
453.31	429.19
453.53	447.19
453.751	437.19
453.971	445.19
454.192	441.19
454.412	427.19
454.633	438.19
454.853	448.19
455.073	449.19
455.294	450.19
455.514	469.19
455.734	476.19
455.955	425.19
456.175	410.19
456.395	411.19
456.616	433.19
456.836	419.19
457.056	416.19
457.276	435.19
457.497	424.19
457.717	437.19
457.937	407.19
458.157	436.19
458.377	428.19
458.598	460.19
458.818	480.19
459.038	533.19
459.258	549.19
459.478	510.19
459.698	493.19
459.918	497.19
460.138	505.19
460.358	496.19
460.578	515.19
460.798	534.19
461.018	514.19
461.238	523.19
461.458	537.19
461.678	489.19
461.898	497.19
462.118	532.19
462.338	542.19
462.558	554.19
462.777	555.19
462.997	593.19
463.217	610.19
463.437	629.19
463.657	567.19
463.876	579.19
464.096	565.19
464.316	578.19
464.536	571.19
464.755	552.19
464.975	548.19
465.195	564.19
465.414	560.19
465.634	525.19
465.854	497.19
466.073	479.19
466.293	479.19
466.512	467.19
466.732	467.19
466.951	447.19
467.171	463.19
467.391	473.19
467.61	454.19
467.829	475.19
468.049	454.19
468.268	470.19
468.488	461.19
468.707	439.19
468.927	440.19
469.146	467.19
469.365	467.19
469.585	428.19
469.804	476.19
470.023	448.19
470.243	479.19
470.462	474.19
470.681	491.19
470.901	459.19
471.12	475.19
471.339	456.19
471.558	475.19
471.777	485.19
471.997	451.19
472.216	448.19
472.435	464.19
472.654	457.19
472.873	455.19
473.092	466.19
473.311	447.19
473.53	453.19
473.749	473.19
473.968	478.19
474.187	541.19
474.406	561.19
474.625	483.19
474.844	455.19
475.063	484.19
475.282	448.19
475.501	449.19
475.72	465.19
475.939	449.19
476.158	462.19
476.377	484.19
476.596	481.19
476.814	487.19
477.033	505.19
477.252	498.19
477.471	496.19
477.69	516.19
477.908	499.19
478.127	529.19
478.346	522.19
478.564	528.19
478.783	547.19
479.002	538.19
479.22	557.19
479.439	550.19
479.658	554.19
479.876	569.19
480.095	585.19
480.313	596.19
480.532	586.19
480.751	570.19
480.969	586.19
481.188	609.19
481.406	597.19
481.624	552.19
481.843	554.19
482.061	570.19
482.28	565.19
482.498	543.19
482.717	536.19
482.935	523.19
483.153	531.19
483.372	523.19
483.59	518.19
483.808	527.19
484.027	512.19
484.245	529.19
484.463	544.19
484.681	545.19
484.9	542.19
485.118	551.19
485.336	563.19
485.554	547.19
485.772	536.19
485.99	547.19
486.209	564.19
486.427	549.19
486.645	574.19
486.863	567.19
487.081	567.19
487.299	577.19
487.517	584.19
487.735	563.19
487.953	581.19
488.171	578.19
488.389	567.19
488.607	573.19
488.825	553.19
489.043	562.19
489.261	579.19
489.479	587.19
489.696	564.19
489.914	581.19
490.132	576.19
490.35	603.19
490.568	583.19
490.786	598.19
491.003	584.19
491.221	584.19
491.439	612.19
491.657	623.19
491.874	606.19
492.092	620.19
492.31	628.19
492.527	657.19
492.745	633.19
492.963	627.19
493.18	628.19
493.398	650.19
493.615	643.19
493.833	632.19
494.05	637.19
494.268	643.19
494.485	641.19
494.703	625.19
494.92	635.19
495.138	640.19
495.355	659.19
495.573	648.19
495.79	625.19
496.008	657.19
496.225	652.19
496.442	666.19
496.66	650.19
496.877	703.19
497.094	668.19
497.312	697.19
497.529	715.19
497.746	685.19
497.963	721.19
498.181	755.19
498.398	774.19
498.615	787.19
498.832	801.19
499.049	798.19
499.267	866.19
499.484	931.19
499.701	950.19
499.918	1031.19
500.135	1051.19
500.352	1114.19
500.569	1196.19
500.786	1201.19
501.003	1149.19
501.22	1096.19
501.437	1057.19
501.654	989.19
501.871	943.19
502.088	899.19
502.305	839.19
502.522	823.19
502.739	803.19
502.956	763.19
503.172	716.19
503.389	741.19
503.606	715.19
503.823	675.19
504.04	722.19
504.256	683.19
504.473	693.19
504.69	712.19
504.907	687.19
505.123	649.19
505.34	666.19
505.557	633.19
505.773	617.19
505.99	633.19
506.207	609.19
506.423	615.19
506.64	619.19
506.856	634.19
507.073	580.19
507.289	599.19
507.506	599.19
507.722	608.19
507.939	596.19
508.155	578.19
508.372	584.19
508.588	568.19
508.805	589.19
509.021	559.19
509.238	591.19
509.454	583.19
509.67	571.19
509.887	557.19
510.103	575.19
510.319	559.19
510.536	613.19
510.752	833.19
510.968	706.19
511.184	582.19
511.401	558.19
511.617	549.19
511.833	521.19
512.049	525.19
512.265	521.19
512.481	556.19
512.698	543.19
512.914	551.19
513.13	546.19
513.346	536.19
513.562	534.19
513.778	557.19
513.994	556.19
514.21	549.19
514.426	538.19
514.642	582.19
514.858	570.19
515.074	596.19
515.29	652.19
515.506	808.19
515.721	720.19
515.937	614.19
516.153	583.19
516.369	580.19
516.585	564.19
516.801	605.19
517.016	604.19
517.232	608.19
517.448	625.19
517.664	623.19
517.879	632.19
518.095	613.19
518.311	579.19
518.527	625.19
518.742	605.19
518.958	584.19
519.173	576.19
519.389	571.19
519.605	557.19
519.82	537.19
520.036	557.19
520.251	567.19
520.467	548.19
520.682	563.19
520.898	569.19
521.113	563.19
521.329	588.19
521.544	606.19
521.76	663.19
521.975	941.19
522.19	901.19
522.406	607.19
522.621	533.19
522.836	517.19
523.052	526.19
523.267	526.19
523.482	512.19
523.698	515.19
523.913	500.19
524.128	492.19
524.343	480.19
524.559	501.19
524.774	489.19
524.989	490.19
525.204	465.19
525.419	491.19
525.634	469.19
525.849	473.19
526.064	466.19
526.28	460.19
526.495	476.19
526.71	472.19
526.925	484.19
527.14	476.19
527.355	471.19
527.57	484.19
527.785	464.19
527.999	455.19
528.214	473.19
528.429	465.19
528.644	451.19
528.859	451.19
529.074	476.19
529.289	467.19
529.503	470.19
529.718	485.19
529.933	479.19
530.148	446.19
530.363	453.19
530.577	466.19
530.792	456.19
531.007	462.19
531.221	463.19
531.436	464.19
531.651	459.19
531.865	457.19
532.08	453.19
532.295	455.19
532.509	447.19
532.724	449.19
532.938	442.19
533.153	453.19
533.367	449.19
533.582	476.19
533.796	440.19
534.011	440.19
534.225	448.19
534.44	463.19
534.654	438.19
534.868	452.19
535.083	435.19
535.297	442.19
535.511	446.19
535.726	461.19
535.94	470.19
536.154	456.19
536.369	439.19
536.583	421.19
536.797	437.19
537.011	438.19
537.225	427.19
537.44	407.19
537.654	436.19
537.868	432.19
538.082	438.19
538.296	423.19
538.51	438.19
538.724	437.19
538.938	447.19
539.153	440.19
539.367	441.19
539.581	426.19
539.795	411.19
540.009	429.19
540.222	425.19
540.436	423.19
540.65	447.19
540.864	444.19
541.078	433.19
541.292	441.19
541.506	406.19
541.72	432.19
541.934	436.19
542.147	427.19
542.361	428.19
542.575	425.19
542.789	445.19
543.002	451.19
543.216	455.19
543.43	417.19
543.644	410.19
543.857	444.19
544.071	418.19
544.285	437.19
544.498	421.19
544.712	441.19
544.925	438.19
545.139	431.19
545.352	425.19
545.566	439.19
545.779	415.19
545.993	434.19
546.206	447.19
546.42	433.19
546.633	417.19
546.847	423.19
547.06	429.19
547.274	427.19
547.487	412.19
547.7	419.19
547.914	447.19
548.127	452.19
548.34	432.19
548.554	425.19
548.767	423.19
548.98	425.19
549.193	444.19
549.407	425.19
549.62	434.19
549.833	445.19
550.046	438.19
550.259	418.19
550.473	421.19
550.686	439.19
550.899	421.19
551.112	417.19
551.325	410.19
551.538	437.19
551.751	417.19
551.964	439.19
552.177	410.19
552.39	452.19
552.603	431.19
552.816	439.19
553.029	445.19
553.242	466.19
553.455	456.19
553.667	475.19
553.88	452.19
554.093	431.19
554.306	446.19
554.519	424.19
554.732	439.19
554.944	433.19
555.157	435.19
555.37	431.19
555.583	417.19
555.795	413.19
556.008	410.19
556.221	391.19
556.433	372.19
556.646	373.19
556.859	401.19
557.071	390.19
557.284	383.19
557.496	371.19
557.709	378.19
557.921	373.19
558.134	368.19
558.346	384.19
558.559	371.19
558.771	377.19
558.984	379.19
559.196	376.19
559.409	369.19
559.621	360.19
559.833	356.19
560.046	370.19
560.258	380.19
560.47	379.19
560.683	390.19
560.895	370.19
561.107	351.19
561.32	375.19
561.532	369.19
561.744	371.19
561.956	372.19
562.168	379.19
562.381	371.19
562.593	386.19
562.805	389.19
563.017	381.19
563.229	370.19
563.441	385.19
563.653	372.19
563.865	393.19
564.077	395.19
564.289	388.19
564.501	399.19
564.713	419.19
564.925	408.19
565.137	419.19
565.349	418.19
565.561	443.19
565.773	447.19
565.985	468.19
566.197	470.19
566.408	472.19
566.62	504.19
566.832	500.19
567.044	538.19
567.255	529.19
567.467	549.19
567.679	546.19
567.891	545.19
568.102	561.19
568.314	565.19
568.526	516.19
568.737	491.19
568.949	467.19
569.161	482.19
569.372	444.19
569.584	424.19
569.795	417.19
570.007	397.19
570.218	433.19
570.43	407.19
570.641	392.19
570.853	382.19
571.064	400.19
571.276	388.19
571.487	387.19
571.698	354.19
571.91	371.19
572.121	364.19
572.333	355.19
572.544	352.19
572.755	363.19
572.966	354.19
573.178	348.19
573.389	333.19
573.6	333.19
573.811	324.19
574.023	348.19
574.234	336.19
574.445	344.19
574.656	324.19
574.867	318.19
575.078	337.19
575.289	335.19
575.501	316.19
575.712	303.19
575.923	336.19
576.134	333.19
576.345	332.19
576.556	325.19
576.767	315.19
576.978	317.19
577.188	325.19
577.399	321.19
577.61	324.19
577.821	315.19
578.032	325.19
578.243	329.19
578.454	411.19
578.665	356.19
578.875	311.19
579.086	305.19
579.297	303.19
579.508	306.19
579.718	310.19
579.929	325.19
580.14	307.19
580.35	313.19
580.561	298.19
580.772	308.19
580.982	300.19
581.193	303.19
581.403	287.19
581.614	294.19
581.825	319.19
582.035	297.19
582.246	309.19
582.456	305.19
582.667	279.19
582.877	304.19
583.087	293.19
583.298	290.19
583.508	293.19
583.719	295.19
583.929	297.19
584.139	303.19
584.35	294.19
584.56	299.19
584.77	300.19
584.981	290.19
585.191	299.19
585.401	277.19
585.611	279.19
585.821	294.19
586.032	289.19
586.242	292.19
586.452	298.19
586.662	284.19
586.872	288.19
587.082	292.19
587.292	307.19
587.502	294.19
587.713	296.19
587.923	264.19
588.133	268.19
588.343	310.19
588.553	305.19
588.762	303.19
588.972	309.19
589.182	341.19
589.392	319.19
589.602	292.19
589.812	312.19
590.022	314.19
590.232	284.19
590.441	293.19
590.651	278.19
590.861	294.19
591.071	288.19
591.281	299.19
591.49	305.19
591.7	316.19
591.91	304.19
592.119	330.19
592.329	300.19
592.539	333.19
592.748	327.19
592.958	305.19
593.167	332.19
593.377	341.19
593.587	349.19
593.796	336.19
594.006	338.19
594.215	341.19
594.424	327.19
594.634	331.19
594.843	322.19
595.053	323.19
595.262	312.19
595.472	309.19
595.681	298.19
595.89	285.19
596.1	297.19
596.309	296.19
596.518	290.19
596.727	283.19
596.937	281.19
597.146	262.19
597.355	277.19
597.564	266.19
597.774	263.19
597.983	277.19
598.192	248.19
598.401	279.19
598.61	259.19
598.819	255.19
599.028	259.19
599.237	269.19
599.446	255.19
599.655	250.19
599.864	266.19
600.073	241.19
600.282	257.19
600.491	249.19
600.7	239.19
600.909	259.19
601.118	257.19
601.327	241.19
601.536	249.19
601.745	239.19
601.953	236.19
602.162	258.19
602.371	258.19
602.58	260.19
602.789	249.19
602.997	247.19
603.206	259.19
603.415	228.19
603.623	249.19
603.832	253.19
604.041	241.19
604.249	236.19
604.458	241.19
604.666	247.19
604.875	246.19
605.084	235.19
605.292	235.19
605.501	239.19
605.709	247.19
605.918	231.19
606.126	242.19
606.334	230.19
606.543	245.19
606.751	233.19
606.96	243.19
607.168	225.19
607.376	226.19
607.585	249.19
607.793	259.19
608.001	241.19
608.21	234.19
608.418	228.19
608.626	231.19
608.834	239.19
609.043	247.19
609.251	236.19
609.459	235.19
609.667	220.19
609.875	223.19
610.083	228.19
610.291	242.19
610.499	236.19
610.707	234.19
610.916	234.19
611.124	243.19
611.332	230.19
611.54	258.19
611.748	261.19
611.955	228.19
612.163	218.19
612.371	221.19
612.579	219.19
612.787	229.19
612.995	241.19
613.203	230.19
613.411	235.19
613.618	231.19
613.826	226.19
614.034	235.19
614.242	220.19
614.449	237.19
614.657	218.19
614.865	234.19
615.072	215.19
615.28	227.19
615.488	218.19
615.695	217.19
615.903	235.19
616.111	220.19
616.318	237.19
616.526	255.19
616.733	248.19
616.941	214.19
617.148	228.19
617.356	231.19
617.563	243.19
617.771	230.19
617.978	244.19
618.185	225.19
618.393	212.19
618.6	217.19
618.807	209.19
619.015	218.19
619.222	204.19
619.429	209.19
619.637	239.19
619.844	223.19
620.051	212.19
620.258	213.19
620.466	218.19
620.673	207.19
620.88	204.19
621.087	206.19
621.294	229.19
621.501	218.19
621.708	214.19
621.915	213.19
622.122	211.19
622.329	212.19
622.536	236.19
622.743	209.19
622.95	205.19
623.157	203.19
623.364	218.19
623.571	202.19
623.778	209.19
623.985	208.19
624.192	208.19
624.399	211.19
624.606	196.19
624.812	196.19
625.019	198.19
625.226	208.19
625.433	207.19
625.639	215.19
625.846	188.19
626.053	206.19
626.259	204.19
626.466	213.19
626.673	199.19
626.879	190.19
627.086	200.19
627.293	186.19
627.499	186.19
627.706	203.19
627.912	211.19
628.119	191.19
628.325	201.19
628.532	203.19
628.738	205.19
628.945	192.19
629.151	199.19
629.357	187.19
629.564	187.19
629.77	192.19
629.976	192.19
630.183	205.19
630.389	191.19
630.595	176.19
630.802	188.19
631.008	176.19
631.214	180.19
631.42	191.19
631.627	190.19
631.833	178.19
632.039	190.19
632.245	192.19
632.451	177.19
632.657	189.19
632.863	179.19
633.069	183.19
633.275	199.19
633.481	186.19
633.688	191.19
633.893	181.19
634.099	190.19
634.305	175.19
634.511	179.19
634.717	187.19
634.923	191.19
635.129	177.19
635.335	171.19
635.541	176.19
635.747	175.19
635.952	191.19
636.158	186.19
636.364	175.19
636.57	176.19
636.775	163.19
636.981	164.19
637.187	187.19
637.392	160.19
637.598	185.19
637.804	180.19
638.009	175.19
638.215	169.19
638.421	188.19
638.626	192.19
638.832	168.19
639.037	157.19
639.243	182.19
639.448	155.19
639.654	186.19
639.859	169.19
640.065	151.19
640.27	167.19
640.475	158.19
640.681	177.19
640.886	170.19
641.091	179.19
641.297	178.19
641.502	167.19
641.707	163.19
641.913	180.19
642.118	172.19
642.323	151.19
642.528	177.19
642.733	175.19
642.939	162.19
643.144	151.19
643.349	166.19
643.554	156.19
643.759	159.19
643.964	164.19
644.169	177.19
644.374	195.19
644.579	151.19
644.784	156.19
644.989	172.19
645.194	165.19
645.399	186.19
645.604	168.19
645.809	179.19
646.014	162.19
646.219	167.19
646.423	161.19
646.628	146.19
646.833	158.19
647.038	151.19
647.243	165.19
647.447	160.19
647.652	165.19
647.857	160.19
648.062	170.19
648.266	175.19
648.471	163.19
648.676	168.19
648.88	185.19
649.085	174.19
649.289	163.19
649.494	165.19
649.698	187.19
649.903	177.19
650.107	163.19
650.312	167.19
650.516	146.19
650.721	145.19
650.925	163.19
651.13	136.19
651.334	143.19
651.539	156.19
651.743	156.19
651.947	145.19
652.152	150.19
652.356	157.19
652.56	141.19
652.764	148.19
652.969	131.19
653.173	145.19
653.377	147.19
653.581	143.19
653.785	151.19
653.99	136.19
654.194	127.19
654.398	133.19
654.602	142.19
654.806	139.19
655.01	135.19
655.214	144.19
655.418	141.19
655.622	132.19
655.826	143.19
656.03	149.19
656.234	148.19
656.438	144.19
656.642	160.19
656.846	139.19
657.049	131.19
657.253	123.19
657.457	128.19
657.661	125.19
657.865	117.19
658.068	117.19
658.272	122.19
658.476	123.19
658.68	92.19
658.883	103.19
659.087	106.19
659.291	97.19
659.494	105.19
659.698	95.19
659.901	90.19
660.105	93.19
660.309	111.19
660.512	83.19
660.716	97.19
660.919	104.19
661.123	81.19
661.326	105.19
661.53	99.19
661.733	90.19
661.936	93.19
662.14	100.19
662.343	94.19
662.546	91.19
662.75	91.19
662.953	87.19
663.156	83.19
663.36	79.19
663.563	80.19
663.766	90.19
663.969	90.19
664.173	71.19
664.376	69.19
664.579	89.19
664.782	89.19
664.985	90.19
665.188	87.19
665.391	89.19
665.594	79.19
665.797	72.19
666	79.19
666.203	80.19
666.406	87.19
666.609	85.19
666.812	82.19
667.015	78.19
667.218	79.19
667.421	69.19
667.624	88.19
667.827	91.19
668.03	96.19
668.232	75.19
668.435	87.19
668.638	92.19
668.841	80.19
669.043	60.19
669.246	76.19
669.449	81.19
669.651	77.19
669.854	78.19
670.057	85.19
670.259	78.19
670.462	81.19
670.665	77.19
670.867	87.19
671.07	67.19
671.272	84.19
671.475	97.19
671.677	92.19
671.88	82.19
672.082	81.19
672.284	94.19
672.487	95.19
672.689	80.19
672.892	78.19
