Data from 1962.PennyLincolnUp.Lamp.En5.5.200Scan.071719.P1._HRD10591_13-52-39-060.txt Node
Date: Thu Jul 18 13:52:39 EDT 2019
User: cochatt
Spectrometer: HR+D1059
Trigger mode: 1
Integration Time (sec): 1.000000E-1
Scans to average: 1
Electric dark correction enabled: true
Nonlinearity correction enabled: false
Boxcar width: 0
XAxis mode: Wavelengths
Number of Pixels in Spectrum: 2048
>>>>>Begin Spectral Data<<<<<
223.165	-17.5
223.4	-17.5
223.635	-17.5
223.869	-19.5
224.104	-18.5
224.338	-21.5
224.573	-6.5
224.808	-14.5
225.042	-8.5
225.277	14.5
225.511	-14.5
225.746	4.5
225.98	15.5
226.215	4.5
226.449	16.5
226.683	24.5
226.918	19.5
227.152	21.5
227.387	42.5
227.621	35.5
227.856	43.5
228.09	45.5
228.324	61.5
228.559	56.5
228.793	65.5
229.027	85.5
229.262	78.5
229.496	80.5
229.73	98.5
229.964	115.5
230.199	95.5
230.433	99.5
230.667	97.5
230.901	99.5
231.136	100.5
231.37	93.5
231.604	109.5
231.838	116.5
232.072	115.5
232.306	113.5
232.541	122.5
232.775	107.5
233.009	105.5
233.243	91.5
233.477	109.5
233.711	98.5
233.945	106.5
234.179	103.5
234.413	108.5
234.647	110.5
234.881	132.5
235.115	115.5
235.349	105.5
235.583	102.5
235.817	106.5
236.051	109.5
236.285	114.5
236.519	110.5
236.753	119.5
236.987	122.5
237.221	122.5
237.455	146.5
237.689	131.5
237.922	132.5
238.156	120.5
238.39	115.5
238.624	105.5
238.858	115.5
239.091	105.5
239.325	110.5
239.559	109.5
239.793	115.5
240.027	125.5
240.26	131.5
240.494	125.5
240.728	135.5
240.961	111.5
241.195	131.5
241.429	118.5
241.662	121.5
241.896	113.5
242.13	119.5
242.363	139.5
242.597	122.5
242.83	133.5
243.064	123.5
243.298	120.5
243.531	120.5
243.765	135.5
243.998	139.5
244.232	106.5
244.465	142.5
244.699	123.5
244.932	135.5
245.166	140.5
245.399	144.5
245.633	129.5
245.866	125.5
246.099	146.5
246.333	135.5
246.566	133.5
246.8	134.5
247.033	153.5
247.266	143.5
247.5	136.5
247.733	139.5
247.966	153.5
248.2	142.5
248.433	140.5
248.666	161.5
248.899	160.5
249.133	149.5
249.366	165.5
249.599	158.5
249.832	156.5
250.066	174.5
250.299	164.5
250.532	167.5
250.765	165.5
250.998	172.5
251.231	182.5
251.465	178.5
251.698	166.5
251.931	151.5
252.164	159.5
252.397	157.5
252.63	154.5
252.863	166.5
253.096	167.5
253.329	166.5
253.562	169.5
253.795	172.5
254.028	158.5
254.261	181.5
254.494	164.5
254.727	179.5
254.96	182.5
255.193	194.5
255.426	192.5
255.659	198.5
255.892	182.5
256.124	184.5
256.357	185.5
256.59	178.5
256.823	163.5
257.056	167.5
257.289	180.5
257.521	178.5
257.754	166.5
257.987	161.5
258.22	185.5
258.452	175.5
258.685	180.5
258.918	173.5
259.151	174.5
259.383	187.5
259.616	196.5
259.849	185.5
260.081	190.5
260.314	204.5
260.547	191.5
260.779	185.5
261.012	197.5
261.244	178.5
261.477	201.5
261.71	193.5
261.942	189.5
262.175	204.5
262.407	189.5
262.64	185.5
262.872	210.5
263.105	194.5
263.337	186.5
263.57	189.5
263.802	192.5
264.035	202.5
264.267	185.5
264.499	194.5
264.732	195.5
264.964	189.5
265.197	187.5
265.429	197.5
265.661	186.5
265.894	193.5
266.126	195.5
266.358	198.5
266.591	196.5
266.823	201.5
267.055	185.5
267.287	193.5
267.52	199.5
267.752	195.5
267.984	206.5
268.216	207.5
268.448	209.5
268.681	208.5
268.913	220.5
269.145	208.5
269.377	218.5
269.609	226.5
269.841	218.5
270.073	228.5
270.306	213.5
270.538	230.5
270.77	226.5
271.002	258.5
271.234	226.5
271.466	244.5
271.698	223.5
271.93	244.5
272.162	252.5
272.394	250.5
272.626	234.5
272.858	222.5
273.09	249.5
273.322	239.5
273.553	229.5
273.785	229.5
274.017	223.5
274.249	229.5
274.481	218.5
274.713	199.5
274.945	238.5
275.176	254.5
275.408	240.5
275.64	242.5
275.872	241.5
276.104	223.5
276.335	247.5
276.567	245.5
276.799	243.5
277.031	243.5
277.262	235.5
277.494	254.5
277.726	241.5
277.957	236.5
278.189	241.5
278.421	241.5
278.652	251.5
278.884	243.5
279.115	248.5
279.347	246.5
279.579	239.5
279.81	255.5
280.042	248.5
280.273	234.5
280.505	245.5
280.736	229.5
280.968	238.5
281.199	238.5
281.431	241.5
281.662	253.5
281.894	259.5
282.125	237.5
282.356	257.5
282.588	276.5
282.819	258.5
283.051	245.5
283.282	248.5
283.513	268.5
283.745	241.5
283.976	242.5
284.207	270.5
284.439	270.5
284.67	270.5
284.901	250.5
285.132	253.5
285.364	257.5
285.595	262.5
285.826	246.5
286.057	266.5
286.288	269.5
286.52	260.5
286.751	262.5
286.982	270.5
287.213	261.5
287.444	269.5
287.675	267.5
287.906	257.5
288.138	260.5
288.369	285.5
288.6	276.5
288.831	270.5
289.062	284.5
289.293	270.5
289.524	272.5
289.755	268.5
289.986	263.5
290.217	286.5
290.448	255.5
290.679	256.5
290.91	269.5
291.141	259.5
291.371	290.5
291.602	277.5
291.833	277.5
292.064	273.5
292.295	262.5
292.526	258.5
292.757	264.5
292.987	265.5
293.218	279.5
293.449	275.5
293.68	275.5
293.91	273.5
294.141	261.5
294.372	268.5
294.603	280.5
294.833	278.5
295.064	288.5
295.295	278.5
295.525	273.5
295.756	277.5
295.987	278.5
296.217	292.5
296.448	286.5
296.679	270.5
296.909	274.5
297.14	299.5
297.37	282.5
297.601	277.5
297.831	280.5
298.062	308.5
298.292	285.5
298.523	305.5
298.753	289.5
298.984	293.5
299.214	296.5
299.445	267.5
299.675	295.5
299.905	286.5
300.136	319.5
300.366	276.5
300.597	267.5
300.827	299.5
301.057	285.5
301.288	287.5
301.518	318.5
301.748	306.5
301.979	324.5
302.209	317.5
302.439	310.5
302.669	315.5
302.9	298.5
303.13	296.5
303.36	294.5
303.59	323.5
303.82	311.5
304.051	319.5
304.281	307.5
304.511	299.5
304.741	300.5
304.971	314.5
305.201	318.5
305.431	293.5
305.661	300.5
305.891	299.5
306.121	295.5
306.352	327.5
306.582	326.5
306.812	309.5
307.042	317.5
307.272	307.5
307.502	302.5
307.731	284.5
307.961	313.5
308.191	309.5
308.421	300.5
308.651	294.5
308.881	317.5
309.111	315.5
309.341	277.5
309.571	341.5
309.8	322.5
310.03	341.5
310.26	317.5
310.49	323.5
310.72	332.5
310.949	323.5
311.179	349.5
311.409	313.5
311.639	317.5
311.868	328.5
312.098	319.5
312.328	328.5
312.557	332.5
312.787	333.5
313.017	318.5
313.246	341.5
313.476	325.5
313.706	315.5
313.935	309.5
314.165	334.5
314.394	330.5
314.624	358.5
314.853	355.5
315.083	327.5
315.312	325.5
315.542	325.5
315.771	350.5
316.001	331.5
316.23	321.5
316.46	338.5
316.689	338.5
316.919	326.5
317.148	343.5
317.377	349.5
317.607	354.5
317.836	337.5
318.065	343.5
318.295	339.5
318.524	329.5
318.753	318.5
318.983	329.5
319.212	331.5
319.441	322.5
319.67	345.5
319.9	355.5
320.129	329.5
320.358	333.5
320.587	332.5
320.816	330.5
321.046	340.5
321.275	341.5
321.504	344.5
321.733	333.5
321.962	357.5
322.191	345.5
322.42	341.5
322.649	353.5
322.878	350.5
323.108	366.5
323.337	381.5
323.566	367.5
323.795	379.5
324.024	391.5
324.253	451.5
324.482	550.5
324.71	775.5
324.939	1075.5
325.168	941.5
325.397	541.5
325.626	419.5
325.855	390.5
326.084	395.5
326.313	372.5
326.542	383.5
326.77	387.5
326.999	435.5
327.228	526.5
327.457	711.5
327.686	847.5
327.914	608.5
328.143	459.5
328.372	422.5
328.6	381.5
328.829	393.5
329.058	389.5
329.287	408.5
329.515	398.5
329.744	391.5
329.972	397.5
330.201	390.5
330.43	383.5
330.658	390.5
330.887	409.5
331.115	398.5
331.344	370.5
331.572	395.5
331.801	391.5
332.03	398.5
332.258	388.5
332.486	420.5
332.715	392.5
332.943	391.5
333.172	399.5
333.4	418.5
333.629	409.5
333.857	428.5
334.085	428.5
334.314	434.5
334.542	449.5
334.771	452.5
334.999	437.5
335.227	443.5
335.455	420.5
335.684	435.5
335.912	435.5
336.14	410.5
336.369	415.5
336.597	417.5
336.825	414.5
337.053	402.5
337.281	406.5
337.51	403.5
337.738	395.5
337.966	383.5
338.194	417.5
338.422	419.5
338.65	393.5
338.878	379.5
339.106	380.5
339.334	380.5
339.562	379.5
339.79	374.5
340.018	398.5
340.246	361.5
340.474	369.5
340.702	373.5
340.93	400.5
341.158	375.5
341.386	387.5
341.614	381.5
341.842	383.5
342.07	387.5
342.298	385.5
342.526	363.5
342.754	379.5
342.981	368.5
343.209	377.5
343.437	375.5
343.665	401.5
343.893	402.5
344.12	420.5
344.348	415.5
344.576	403.5
344.804	395.5
345.031	397.5
345.259	382.5
345.487	385.5
345.714	389.5
345.942	369.5
346.17	377.5
346.397	386.5
346.625	372.5
346.853	360.5
347.08	374.5
347.308	358.5
347.535	369.5
347.763	361.5
347.99	353.5
348.218	371.5
348.445	368.5
348.673	356.5
348.9	365.5
349.128	375.5
349.355	371.5
349.583	371.5
349.81	359.5
350.037	361.5
350.265	370.5
350.492	361.5
350.72	361.5
350.947	352.5
351.174	367.5
351.402	373.5
351.629	354.5
351.856	373.5
352.083	367.5
352.311	362.5
352.538	396.5
352.765	373.5
352.992	354.5
353.22	344.5
353.447	349.5
353.674	352.5
353.901	352.5
354.128	344.5
354.355	364.5
354.583	366.5
354.81	353.5
355.037	361.5
355.264	360.5
355.491	362.5
355.718	353.5
355.945	351.5
356.172	356.5
356.399	363.5
356.626	347.5
356.853	354.5
357.08	338.5
357.307	370.5
357.534	348.5
357.761	349.5
357.988	349.5
358.215	353.5
358.441	338.5
358.668	362.5
358.895	350.5
359.122	365.5
359.349	358.5
359.576	356.5
359.802	357.5
360.029	355.5
360.256	372.5
360.483	345.5
360.709	362.5
360.936	366.5
361.163	385.5
361.39	365.5
361.616	365.5
361.843	370.5
362.07	358.5
362.296	360.5
362.523	354.5
362.749	349.5
362.976	359.5
363.203	379.5
363.429	360.5
363.656	354.5
363.882	360.5
364.109	349.5
364.335	364.5
364.562	386.5
364.788	355.5
365.015	364.5
365.241	350.5
365.468	361.5
365.694	364.5
365.92	354.5
366.147	352.5
366.373	353.5
366.599	364.5
366.826	358.5
367.052	359.5
367.278	353.5
367.505	343.5
367.731	352.5
367.957	344.5
368.184	344.5
368.41	377.5
368.636	358.5
368.862	364.5
369.089	363.5
369.315	350.5
369.541	351.5
369.767	358.5
369.993	366.5
370.219	372.5
370.445	373.5
370.672	366.5
370.898	368.5
371.124	377.5
371.35	365.5
371.576	389.5
371.802	357.5
372.028	362.5
372.254	363.5
372.48	350.5
372.706	364.5
372.932	385.5
373.158	378.5
373.384	385.5
373.61	377.5
373.835	391.5
374.061	379.5
374.287	389.5
374.513	381.5
374.739	375.5
374.965	390.5
375.191	392.5
375.416	383.5
375.642	380.5
375.868	363.5
376.094	366.5
376.319	376.5
376.545	385.5
376.771	364.5
376.997	369.5
377.222	375.5
377.448	393.5
377.674	379.5
377.899	342.5
378.125	383.5
378.35	356.5
378.576	367.5
378.802	380.5
379.027	387.5
379.253	371.5
379.478	381.5
379.704	375.5
379.929	390.5
380.155	364.5
380.38	364.5
380.606	373.5
380.831	385.5
381.057	387.5
381.282	376.5
381.507	391.5
381.733	387.5
381.958	375.5
382.184	371.5
382.409	375.5
382.634	388.5
382.86	383.5
383.085	383.5
383.31	394.5
383.535	397.5
383.761	388.5
383.986	396.5
384.211	381.5
384.436	409.5
384.662	397.5
384.887	428.5
385.112	405.5
385.337	417.5
385.562	415.5
385.787	441.5
386.013	439.5
386.238	452.5
386.463	437.5
386.688	424.5
386.913	433.5
387.138	429.5
387.363	433.5
387.588	400.5
387.813	431.5
388.038	422.5
388.263	425.5
388.488	435.5
388.713	440.5
388.938	425.5
389.163	406.5
389.387	412.5
389.612	424.5
389.837	436.5
390.062	409.5
390.287	427.5
390.512	429.5
390.736	412.5
390.961	404.5
391.186	425.5
391.411	428.5
391.636	421.5
391.86	451.5
392.085	459.5
392.31	443.5
392.534	459.5
392.759	451.5
392.984	418.5
393.208	456.5
393.433	441.5
393.658	459.5
393.882	442.5
394.107	436.5
394.331	430.5
394.556	451.5
394.78	435.5
395.005	445.5
395.229	445.5
395.454	449.5
395.678	462.5
395.903	442.5
396.127	463.5
396.352	468.5
396.576	471.5
396.801	462.5
397.025	487.5
397.249	471.5
397.474	459.5
397.698	448.5
397.922	478.5
398.147	477.5
398.371	492.5
398.595	498.5
398.82	477.5
399.044	516.5
399.268	525.5
399.492	577.5
399.717	598.5
399.941	609.5
400.165	600.5
400.389	612.5
400.613	552.5
400.837	549.5
401.062	528.5
401.286	504.5
401.51	494.5
401.734	501.5
401.958	500.5
402.182	494.5
402.406	501.5
402.63	515.5
402.854	510.5
403.078	536.5
403.302	497.5
403.526	513.5
403.75	516.5
403.974	505.5
404.198	553.5
404.422	505.5
404.645	537.5
404.869	529.5
405.093	537.5
405.317	562.5
405.541	595.5
405.765	544.5
405.988	511.5
406.212	522.5
406.436	527.5
406.66	550.5
406.883	509.5
407.107	564.5
407.331	593.5
407.555	634.5
407.778	640.5
408.002	601.5
408.226	574.5
408.449	554.5
408.673	542.5
408.896	544.5
409.12	576.5
409.344	571.5
409.567	532.5
409.791	529.5
410.014	524.5
410.238	523.5
410.461	526.5
410.685	515.5
410.908	517.5
411.132	529.5
411.355	573.5
411.578	523.5
411.802	516.5
412.025	507.5
412.249	503.5
412.472	525.5
412.695	528.5
412.919	526.5
413.142	505.5
413.365	493.5
413.589	501.5
413.812	496.5
414.035	491.5
414.258	483.5
414.482	470.5
414.705	485.5
414.928	484.5
415.151	469.5
415.374	470.5
415.597	484.5
415.821	486.5
416.044	487.5
416.267	481.5
416.49	468.5
416.713	473.5
416.936	479.5
417.159	479.5
417.382	469.5
417.605	492.5
417.828	475.5
418.051	476.5
418.274	478.5
418.497	479.5
418.72	500.5
418.943	476.5
419.166	506.5
419.389	530.5
419.611	520.5
419.834	518.5
420.057	513.5
420.28	507.5
420.503	482.5
420.726	482.5
420.948	495.5
421.171	519.5
421.394	527.5
421.617	485.5
421.839	468.5
422.062	484.5
422.285	493.5
422.507	534.5
422.73	560.5
422.953	539.5
423.175	509.5
423.398	518.5
423.621	511.5
423.843	516.5
424.066	523.5
424.288	485.5
424.511	493.5
424.733	575.5
424.956	584.5
425.178	568.5
425.401	585.5
425.623	581.5
425.846	523.5
426.068	489.5
426.291	483.5
426.513	514.5
426.735	500.5
426.958	515.5
427.18	558.5
427.402	633.5
427.625	685.5
427.847	600.5
428.069	544.5
428.292	499.5
428.514	477.5
428.736	479.5
428.958	479.5
429.181	473.5
429.403	469.5
429.625	484.5
429.847	470.5
430.069	500.5
430.292	513.5
430.514	459.5
430.736	465.5
430.958	469.5
431.18	437.5
431.402	459.5
431.624	441.5
431.846	449.5
432.068	443.5
432.29	451.5
432.512	463.5
432.734	449.5
432.956	459.5
433.178	464.5
433.4	446.5
433.622	443.5
433.844	463.5
434.066	462.5
434.287	454.5
434.509	487.5
434.731	510.5
434.953	491.5
435.175	489.5
435.397	512.5
435.618	492.5
435.84	520.5
436.062	556.5
436.284	593.5
436.505	534.5
436.727	485.5
436.949	478.5
437.17	465.5
437.392	462.5
437.614	462.5
437.835	471.5
438.057	534.5
438.278	581.5
438.5	589.5
438.721	633.5
438.943	595.5
439.165	504.5
439.386	467.5
439.608	473.5
439.829	484.5
440.05	486.5
440.272	513.5
440.493	505.5
440.715	500.5
440.936	466.5
441.158	493.5
441.379	470.5
441.6	488.5
441.822	505.5
442.043	528.5
442.264	576.5
442.486	597.5
442.707	545.5
442.928	517.5
443.149	493.5
443.371	500.5
443.592	536.5
443.813	571.5
444.034	635.5
444.255	590.5
444.476	547.5
444.698	517.5
444.919	533.5
445.14	646.5
445.361	590.5
445.582	526.5
445.803	563.5
446.024	598.5
446.245	580.5
446.466	541.5
446.687	511.5
446.908	493.5
447.129	490.5
447.35	446.5
447.571	472.5
447.792	458.5
448.013	457.5
448.234	449.5
448.455	453.5
448.675	539.5
448.896	626.5
449.117	533.5
449.338	527.5
449.559	588.5
449.779	640.5
450	518.5
450.221	467.5
450.442	440.5
450.662	417.5
450.883	437.5
451.104	427.5
451.324	421.5
451.545	439.5
451.766	407.5
451.986	408.5
452.207	422.5
452.428	421.5
452.648	400.5
452.869	409.5
453.089	411.5
453.31	429.5
453.53	418.5
453.751	410.5
453.971	397.5
454.192	418.5
454.412	399.5
454.633	411.5
454.853	401.5
455.073	400.5
455.294	430.5
455.514	442.5
455.734	447.5
455.955	419.5
456.175	421.5
456.395	396.5
456.616	410.5
456.836	394.5
457.056	396.5
457.276	372.5
457.497	402.5
457.717	393.5
457.937	403.5
458.157	417.5
458.377	398.5
458.598	414.5
458.818	454.5
459.038	484.5
459.258	508.5
459.478	469.5
459.698	458.5
459.918	446.5
460.138	478.5
460.358	488.5
460.578	500.5
460.798	513.5
461.018	497.5
461.238	491.5
461.458	498.5
461.678	483.5
461.898	504.5
462.118	509.5
462.338	519.5
462.558	524.5
462.777	543.5
462.997	563.5
463.217	579.5
463.437	567.5
463.657	580.5
463.876	551.5
464.096	550.5
464.316	532.5
464.536	544.5
464.755	547.5
464.975	539.5
465.195	527.5
465.414	523.5
465.634	486.5
465.854	469.5
466.073	454.5
466.293	448.5
466.512	448.5
466.732	436.5
466.951	428.5
467.171	437.5
467.391	431.5
467.61	443.5
467.829	437.5
468.049	434.5
468.268	440.5
468.488	454.5
468.707	416.5
468.927	426.5
469.146	414.5
469.365	429.5
469.585	437.5
469.804	442.5
470.023	426.5
470.243	437.5
470.462	446.5
470.681	453.5
470.901	443.5
471.12	457.5
471.339	462.5
471.558	422.5
471.777	440.5
471.997	425.5
472.216	444.5
472.435	444.5
472.654	449.5
472.873	423.5
473.092	448.5
473.311	451.5
473.53	434.5
473.749	441.5
473.968	474.5
474.187	485.5
474.406	509.5
474.625	460.5
474.844	457.5
475.063	437.5
475.282	425.5
475.501	439.5
475.72	433.5
475.939	427.5
476.158	465.5
476.377	474.5
476.596	449.5
476.814	458.5
477.033	462.5
477.252	445.5
477.471	468.5
477.69	494.5
477.908	484.5
478.127	516.5
478.346	506.5
478.564	514.5
478.783	514.5
479.002	516.5
479.22	520.5
479.439	541.5
479.658	511.5
479.876	521.5
480.095	537.5
480.313	570.5
480.532	544.5
480.751	539.5
480.969	540.5
481.188	550.5
481.406	537.5
481.624	539.5
481.843	531.5
482.061	522.5
482.28	536.5
482.498	504.5
482.717	510.5
482.935	498.5
483.153	504.5
483.372	515.5
483.59	521.5
483.808	517.5
484.027	530.5
484.245	523.5
484.463	546.5
484.681	532.5
484.9	542.5
485.118	529.5
485.336	545.5
485.554	524.5
485.772	537.5
485.99	525.5
486.209	547.5
486.427	541.5
486.645	555.5
486.863	531.5
487.081	539.5
487.299	557.5
487.517	542.5
487.735	532.5
487.953	552.5
488.171	564.5
488.389	543.5
488.607	537.5
488.825	542.5
489.043	556.5
489.261	531.5
489.479	543.5
489.696	541.5
489.914	531.5
490.132	543.5
490.35	556.5
490.568	561.5
490.786	544.5
491.003	560.5
491.221	551.5
491.439	548.5
491.657	570.5
491.874	601.5
492.092	559.5
492.31	582.5
492.527	579.5
492.745	591.5
492.963	628.5
493.18	597.5
493.398	599.5
493.615	583.5
493.833	554.5
494.05	590.5
494.268	588.5
494.485	583.5
494.703	579.5
494.92	582.5
495.138	596.5
495.355	572.5
495.573	622.5
495.79	613.5
496.008	619.5
496.225	618.5
496.442	575.5
496.66	616.5
496.877	645.5
497.094	632.5
497.312	619.5
497.529	647.5
497.746	638.5
497.963	666.5
498.181	701.5
498.398	709.5
498.615	729.5
498.832	766.5
499.049	783.5
499.267	816.5
499.484	837.5
499.701	897.5
499.918	955.5
500.135	1021.5
500.352	1122.5
500.569	1150.5
500.786	1115.5
501.003	1093.5
501.22	1025.5
501.437	939.5
501.654	926.5
501.871	893.5
502.088	839.5
502.305	781.5
502.522	749.5
502.739	722.5
502.956	701.5
503.172	687.5
503.389	679.5
503.606	689.5
503.823	670.5
504.04	659.5
504.256	656.5
504.473	659.5
504.69	670.5
504.907	664.5
505.123	647.5
505.34	626.5
505.557	585.5
505.773	591.5
505.99	566.5
506.207	584.5
506.423	610.5
506.64	561.5
506.856	579.5
507.073	551.5
507.289	544.5
507.506	531.5
507.722	547.5
507.939	547.5
508.155	542.5
508.372	538.5
508.588	543.5
508.805	534.5
509.021	536.5
509.238	542.5
509.454	512.5
509.67	517.5
509.887	520.5
510.103	540.5
510.319	523.5
510.536	562.5
510.752	699.5
510.968	606.5
511.184	509.5
511.401	502.5
511.617	517.5
511.833	502.5
512.049	478.5
512.265	516.5
512.481	510.5
512.698	504.5
512.914	488.5
513.13	513.5
513.346	492.5
513.562	499.5
513.778	507.5
513.994	482.5
514.21	501.5
514.426	495.5
514.642	502.5
514.858	543.5
515.074	528.5
515.29	562.5
515.506	671.5
515.721	635.5
515.937	535.5
516.153	534.5
516.369	533.5
516.585	546.5
516.801	542.5
517.016	571.5
517.232	585.5
517.448	582.5
517.664	578.5
517.879	575.5
518.095	600.5
518.311	594.5
518.527	592.5
518.742	561.5
518.958	557.5
519.173	538.5
519.389	517.5
519.605	537.5
519.82	506.5
520.036	527.5
520.251	513.5
520.467	503.5
520.682	517.5
520.898	500.5
521.113	510.5
521.329	516.5
521.544	550.5
521.76	588.5
521.975	701.5
522.19	706.5
522.406	541.5
522.621	504.5
522.836	478.5
523.052	463.5
523.267	471.5
523.482	470.5
523.698	468.5
523.913	456.5
524.128	467.5
524.343	426.5
524.559	462.5
524.774	457.5
524.989	449.5
525.204	438.5
525.419	444.5
525.634	442.5
525.849	449.5
526.064	482.5
526.28	426.5
526.495	450.5
526.71	437.5
526.925	438.5
527.14	453.5
527.355	430.5
527.57	435.5
527.785	445.5
527.999	424.5
528.214	419.5
528.429	454.5
528.644	433.5
528.859	469.5
529.074	451.5
529.289	426.5
529.503	444.5
529.718	473.5
529.933	445.5
530.148	465.5
530.363	449.5
530.577	429.5
530.792	438.5
531.007	428.5
531.221	439.5
531.436	428.5
531.651	439.5
531.865	429.5
532.08	426.5
532.295	437.5
532.509	427.5
532.724	422.5
532.938	430.5
533.153	438.5
533.367	430.5
533.582	422.5
533.796	445.5
534.011	443.5
534.225	419.5
534.44	414.5
534.654	418.5
534.868	431.5
535.083	424.5
535.297	444.5
535.511	435.5
535.726	421.5
535.94	436.5
536.154	415.5
536.369	421.5
536.583	423.5
536.797	437.5
537.011	426.5
537.225	411.5
537.44	423.5
537.654	426.5
537.868	398.5
538.082	409.5
538.296	413.5
538.51	412.5
538.724	426.5
538.938	413.5
539.153	407.5
539.367	411.5
539.581	399.5
539.795	397.5
540.009	392.5
540.222	413.5
540.436	413.5
540.65	429.5
540.864	411.5
541.078	403.5
541.292	391.5
541.506	406.5
541.72	411.5
541.934	417.5
542.147	403.5
542.361	403.5
542.575	398.5
542.789	410.5
543.002	412.5
543.216	435.5
543.43	431.5
543.644	416.5
543.857	422.5
544.071	408.5
544.285	422.5
544.498	423.5
544.712	408.5
544.925	417.5
545.139	396.5
545.352	392.5
545.566	418.5
545.779	405.5
545.993	425.5
546.206	430.5
546.42	414.5
546.633	419.5
546.847	419.5
547.06	404.5
547.274	410.5
547.487	420.5
547.7	406.5
547.914	418.5
548.127	413.5
548.34	383.5
548.554	408.5
548.767	412.5
548.98	415.5
549.193	430.5
549.407	418.5
549.62	422.5
549.833	435.5
550.046	394.5
550.259	423.5
550.473	420.5
550.686	417.5
550.899	389.5
551.112	410.5
551.325	427.5
551.538	409.5
551.751	390.5
551.964	405.5
552.177	409.5
552.39	422.5
552.603	419.5
552.816	425.5
553.029	438.5
553.242	425.5
553.455	451.5
553.667	441.5
553.88	432.5
554.093	442.5
554.306	426.5
554.519	420.5
554.732	421.5
554.944	395.5
555.157	405.5
555.37	399.5
555.583	400.5
555.795	409.5
556.008	390.5
556.221	391.5
556.433	371.5
556.646	388.5
556.859	357.5
557.071	358.5
557.284	370.5
557.496	365.5
557.709	381.5
557.921	376.5
558.134	387.5
558.346	364.5
558.559	366.5
558.771	364.5
558.984	376.5
559.196	358.5
559.409	373.5
559.621	351.5
559.833	356.5
560.046	346.5
560.258	365.5
560.47	357.5
560.683	355.5
560.895	360.5
561.107	377.5
561.32	367.5
561.532	371.5
561.744	362.5
561.956	367.5
562.168	366.5
562.381	341.5
562.593	385.5
562.805	373.5
563.017	358.5
563.229	367.5
563.441	372.5
563.653	380.5
563.865	385.5
564.077	391.5
564.289	379.5
564.501	396.5
564.713	399.5
564.925	406.5
565.137	399.5
565.349	398.5
565.561	416.5
565.773	414.5
565.985	429.5
566.197	453.5
566.408	478.5
566.62	482.5
566.832	520.5
567.044	515.5
567.255	528.5
567.467	510.5
567.679	543.5
567.891	566.5
568.102	536.5
568.314	547.5
568.526	532.5
568.737	494.5
568.949	475.5
569.161	443.5
569.372	421.5
569.584	423.5
569.795	402.5
570.007	403.5
570.218	393.5
570.43	396.5
570.641	381.5
570.853	388.5
571.064	399.5
571.276	372.5
571.487	364.5
571.698	379.5
571.91	371.5
572.121	356.5
572.333	356.5
572.544	347.5
572.755	329.5
572.966	345.5
573.178	343.5
573.389	346.5
573.6	329.5
573.811	343.5
574.023	323.5
574.234	329.5
574.445	340.5
574.656	317.5
574.867	328.5
575.078	341.5
575.289	333.5
575.501	325.5
575.712	317.5
575.923	307.5
576.134	323.5
576.345	305.5
576.556	310.5
576.767	312.5
576.978	323.5
577.188	319.5
577.399	302.5
577.61	317.5
577.821	310.5
578.032	322.5
578.243	316.5
578.454	365.5
578.665	329.5
578.875	316.5
579.086	294.5
579.297	309.5
579.508	307.5
579.718	309.5
579.929	299.5
580.14	301.5
580.35	297.5
580.561	312.5
580.772	282.5
580.982	298.5
581.193	291.5
581.403	293.5
581.614	287.5
581.825	300.5
582.035	280.5
582.246	290.5
582.456	296.5
582.667	309.5
582.877	302.5
583.087	295.5
583.298	294.5
583.508	279.5
583.719	300.5
583.929	283.5
584.139	280.5
584.35	267.5
584.56	291.5
584.77	293.5
584.981	295.5
585.191	296.5
585.401	293.5
585.611	286.5
585.821	295.5
586.032	301.5
586.242	289.5
586.452	300.5
586.662	288.5
586.872	280.5
587.082	282.5
587.292	290.5
587.502	284.5
587.713	281.5
587.923	290.5
588.133	284.5
588.343	281.5
588.553	312.5
588.762	281.5
588.972	296.5
589.182	460.5
589.392	442.5
589.602	329.5
589.812	413.5
590.022	357.5
590.232	297.5
590.441	297.5
590.651	285.5
590.861	310.5
591.071	285.5
591.281	311.5
591.49	294.5
591.7	299.5
591.91	297.5
592.119	307.5
592.329	302.5
592.539	319.5
592.748	308.5
592.958	318.5
593.167	314.5
593.377	324.5
593.587	309.5
593.796	346.5
594.006	329.5
594.215	342.5
594.424	340.5
594.634	337.5
594.843	340.5
595.053	312.5
595.262	319.5
595.472	312.5
595.681	300.5
595.89	299.5
596.1	300.5
596.309	282.5
596.518	307.5
596.727	287.5
596.937	287.5
597.146	271.5
597.355	274.5
597.564	275.5
597.774	266.5
597.983	284.5
598.192	265.5
598.401	281.5
598.61	257.5
598.819	254.5
599.028	262.5
599.237	258.5
599.446	258.5
599.655	267.5
599.864	252.5
600.073	266.5
600.282	250.5
600.491	245.5
600.7	241.5
600.909	251.5
601.118	260.5
601.327	254.5
601.536	270.5
601.745	244.5
601.953	260.5
602.162	250.5
602.371	263.5
602.58	264.5
602.789	277.5
602.997	258.5
603.206	243.5
603.415	244.5
603.623	237.5
603.832	265.5
604.041	235.5
604.249	241.5
604.458	234.5
604.666	238.5
604.875	249.5
605.084	245.5
605.292	227.5
605.501	241.5
605.709	242.5
605.918	235.5
606.126	231.5
606.334	247.5
606.543	243.5
606.751	246.5
606.96	241.5
607.168	236.5
607.376	227.5
607.585	233.5
607.793	220.5
608.001	234.5
608.21	230.5
608.418	235.5
608.626	246.5
608.834	216.5
609.043	235.5
609.251	233.5
609.459	219.5
609.667	222.5
609.875	229.5
610.083	233.5
610.291	229.5
610.499	221.5
610.707	233.5
610.916	244.5
611.124	250.5
611.332	250.5
611.54	246.5
611.748	227.5
611.955	235.5
612.163	245.5
612.371	228.5
612.579	235.5
612.787	236.5
612.995	236.5
613.203	230.5
613.411	235.5
613.618	235.5
613.826	222.5
614.034	231.5
614.242	234.5
614.449	221.5
614.657	233.5
614.865	228.5
615.072	229.5
615.28	237.5
615.488	225.5
615.695	239.5
615.903	229.5
616.111	237.5
616.318	235.5
616.526	245.5
616.733	246.5
616.941	222.5
617.148	221.5
617.356	234.5
617.563	214.5
617.771	226.5
617.978	230.5
618.185	234.5
618.393	234.5
618.6	238.5
618.807	234.5
619.015	230.5
619.222	235.5
619.429	247.5
619.637	223.5
619.844	225.5
620.051	238.5
620.258	239.5
620.466	233.5
620.673	213.5
620.88	213.5
621.087	214.5
621.294	223.5
621.501	236.5
621.708	211.5
621.915	215.5
622.122	205.5
622.329	232.5
622.536	217.5
622.743	223.5
622.95	219.5
623.157	209.5
623.364	250.5
623.571	212.5
623.778	195.5
623.985	207.5
624.192	218.5
624.399	220.5
624.606	220.5
624.812	204.5
625.019	212.5
625.226	199.5
625.433	218.5
625.639	205.5
625.846	224.5
626.053	211.5
626.259	231.5
626.466	204.5
626.673	203.5
626.879	203.5
627.086	199.5
627.293	233.5
627.499	203.5
627.706	196.5
627.912	198.5
628.119	194.5
628.325	209.5
628.532	199.5
628.738	227.5
628.945	202.5
629.151	210.5
629.357	197.5
629.564	187.5
629.77	173.5
629.976	192.5
630.183	191.5
630.389	198.5
630.595	175.5
630.802	201.5
631.008	183.5
631.214	190.5
631.42	195.5
631.627	219.5
631.833	206.5
632.039	197.5
632.245	213.5
632.451	200.5
632.657	188.5
632.863	197.5
633.069	195.5
633.275	191.5
633.481	193.5
633.688	197.5
633.893	185.5
634.099	165.5
634.305	184.5
634.511	193.5
634.717	181.5
634.923	177.5
635.129	180.5
635.335	177.5
635.541	188.5
635.747	166.5
635.952	180.5
636.158	191.5
636.364	172.5
636.57	177.5
636.775	182.5
636.981	186.5
637.187	166.5
637.392	185.5
637.598	179.5
637.804	179.5
638.009	172.5
638.215	179.5
638.421	171.5
638.626	177.5
638.832	170.5
639.037	171.5
639.243	191.5
639.448	178.5
639.654	179.5
639.859	181.5
640.065	191.5
640.27	165.5
640.475	179.5
640.681	175.5
640.886	160.5
641.091	177.5
641.297	201.5
641.502	182.5
641.707	142.5
641.913	163.5
642.118	167.5
642.323	155.5
642.528	183.5
642.733	189.5
642.939	170.5
643.144	170.5
643.349	178.5
643.554	164.5
643.759	159.5
643.964	166.5
644.169	184.5
644.374	179.5
644.579	161.5
644.784	161.5
644.989	168.5
645.194	161.5
645.399	161.5
645.604	166.5
645.809	173.5
646.014	170.5
646.219	166.5
646.423	172.5
646.628	166.5
646.833	154.5
647.038	174.5
647.243	175.5
647.447	170.5
647.652	178.5
647.857	165.5
648.062	173.5
648.266	170.5
648.471	191.5
648.676	171.5
648.88	174.5
649.085	179.5
649.289	181.5
649.494	167.5
649.698	186.5
649.903	180.5
650.107	174.5
650.312	178.5
650.516	153.5
650.721	167.5
650.925	172.5
651.13	159.5
651.334	163.5
651.539	153.5
651.743	144.5
651.947	164.5
652.152	147.5
652.356	171.5
652.56	165.5
652.764	150.5
652.969	148.5
653.173	150.5
653.377	149.5
653.581	161.5
653.785	165.5
653.99	155.5
654.194	140.5
654.398	129.5
654.602	141.5
654.806	159.5
655.01	153.5
655.214	159.5
655.418	161.5
655.622	157.5
655.826	153.5
656.03	156.5
656.234	160.5
656.438	173.5
656.642	173.5
656.846	174.5
657.049	165.5
657.253	154.5
657.457	146.5
657.661	135.5
657.865	128.5
658.068	136.5
658.272	107.5
658.476	111.5
658.68	123.5
658.883	100.5
659.087	115.5
659.291	123.5
659.494	105.5
659.698	103.5
659.901	89.5
660.105	94.5
660.309	105.5
660.512	91.5
660.716	76.5
660.919	100.5
661.123	92.5
661.326	91.5
661.53	110.5
661.733	103.5
661.936	110.5
662.14	78.5
662.343	91.5
662.546	94.5
662.75	89.5
662.953	93.5
663.156	97.5
663.36	85.5
663.563	90.5
663.766	86.5
663.969	89.5
664.173	94.5
664.376	75.5
664.579	76.5
664.782	77.5
664.985	74.5
665.188	77.5
665.391	88.5
665.594	75.5
665.797	76.5
666	83.5
666.203	91.5
666.406	102.5
666.609	87.5
666.812	77.5
667.015	90.5
667.218	75.5
667.421	82.5
667.624	85.5
667.827	86.5
668.03	77.5
668.232	83.5
668.435	75.5
668.638	87.5
668.841	83.5
669.043	80.5
669.246	91.5
669.449	83.5
669.651	83.5
669.854	79.5
670.057	91.5
670.259	86.5
670.462	86.5
670.665	93.5
670.867	89.5
671.07	81.5
671.272	92.5
671.475	82.5
671.677	81.5
671.88	87.5
672.082	84.5
672.284	99.5
672.487	100.5
672.689	80.5
672.892	73.5
