Data from 1963.PennyLincolnUp.Lamp.En5.5.200Scan.071719.P1._HRD10591_13-58-20-063.txt Node
Date: Thu Jul 18 13:58:20 EDT 2019
User: cochatt
Spectrometer: HR+D1059
Trigger mode: 1
Integration Time (sec): 1.000000E-1
Scans to average: 1
Electric dark correction enabled: true
Nonlinearity correction enabled: false
Boxcar width: 0
XAxis mode: Wavelengths
Number of Pixels in Spectrum: 2048
>>>>>Begin Spectral Data<<<<<
223.165	-23.06
223.4	-23.06
223.635	-23.06
223.869	-16.06
224.104	-11.06
224.338	2.94
224.573	-21.06
224.808	2.94
225.042	-12.06
225.277	-13.06
225.511	-3.06
225.746	0.94
225.98	4.94
226.215	-2.06
226.449	6.94
226.683	7.94
226.918	36.94
227.152	37.94
227.387	27.94
227.621	40.94
227.856	45.94
228.09	55.94
228.324	49.94
228.559	61.94
228.793	73.94
229.027	95.94
229.262	103.94
229.496	105.94
229.73	108.94
229.964	129.94
230.199	120.94
230.433	119.94
230.667	108.94
230.901	118.94
231.136	120.94
231.37	115.94
231.604	140.94
231.838	125.94
232.072	119.94
232.306	116.94
232.541	104.94
232.775	117.94
233.009	121.94
233.243	125.94
233.477	114.94
233.711	123.94
233.945	113.94
234.179	137.94
234.413	115.94
234.647	125.94
234.881	121.94
235.115	121.94
235.349	118.94
235.583	115.94
235.817	126.94
236.051	122.94
236.285	133.94
236.519	129.94
236.753	127.94
236.987	144.94
237.221	155.94
237.455	189.94
237.689	169.94
237.922	153.94
238.156	149.94
238.39	128.94
238.624	134.94
238.858	112.94
239.091	117.94
239.325	115.94
239.559	121.94
239.793	142.94
240.027	134.94
240.26	133.94
240.494	161.94
240.728	144.94
240.961	159.94
241.195	151.94
241.429	139.94
241.662	126.94
241.896	141.94
242.13	144.94
242.363	151.94
242.597	143.94
242.83	167.94
243.064	141.94
243.298	160.94
243.531	163.94
243.765	161.94
243.998	148.94
244.232	155.94
244.465	157.94
244.699	172.94
244.932	161.94
245.166	156.94
245.399	160.94
245.633	146.94
245.866	164.94
246.099	158.94
246.333	169.94
246.566	168.94
246.8	171.94
247.033	174.94
247.266	173.94
247.5	180.94
247.733	199.94
247.966	183.94
248.2	193.94
248.433	177.94
248.666	174.94
248.899	200.94
249.133	199.94
249.366	211.94
249.599	204.94
249.832	193.94
250.066	179.94
250.299	202.94
250.532	218.94
250.765	196.94
250.998	227.94
251.231	235.94
251.465	213.94
251.698	212.94
251.931	208.94
252.164	201.94
252.397	207.94
252.63	198.94
252.863	200.94
253.096	230.94
253.329	227.94
253.562	228.94
253.795	229.94
254.028	228.94
254.261	217.94
254.494	228.94
254.727	247.94
254.96	267.94
255.193	271.94
255.426	241.94
255.659	219.94
255.892	251.94
256.124	236.94
256.357	250.94
256.59	225.94
256.823	231.94
257.056	235.94
257.289	227.94
257.521	206.94
257.754	211.94
257.987	241.94
258.22	233.94
258.452	223.94
258.685	232.94
258.918	236.94
259.151	242.94
259.383	236.94
259.616	225.94
259.849	238.94
260.081	243.94
260.314	273.94
260.547	268.94
260.779	265.94
261.012	247.94
261.244	261.94
261.477	243.94
261.71	252.94
261.942	245.94
262.175	239.94
262.407	240.94
262.64	242.94
262.872	237.94
263.105	241.94
263.337	242.94
263.57	235.94
263.802	238.94
264.035	242.94
264.267	236.94
264.499	242.94
264.732	251.94
264.964	226.94
265.197	235.94
265.429	243.94
265.661	241.94
265.894	261.94
266.126	249.94
266.358	243.94
266.591	248.94
266.823	234.94
267.055	254.94
267.287	251.94
267.52	236.94
267.752	261.94
267.984	255.94
268.216	246.94
268.448	247.94
268.681	271.94
268.913	265.94
269.145	285.94
269.377	290.94
269.609	299.94
269.841	290.94
270.073	281.94
270.306	308.94
270.538	315.94
270.77	325.94
271.002	319.94
271.234	301.94
271.466	293.94
271.698	307.94
271.93	318.94
272.162	303.94
272.394	290.94
272.626	295.94
272.858	317.94
273.09	317.94
273.322	290.94
273.553	277.94
273.785	289.94
274.017	294.94
274.249	275.94
274.481	308.94
274.713	281.94
274.945	307.94
275.176	288.94
275.408	290.94
275.64	282.94
275.872	293.94
276.104	292.94
276.335	298.94
276.567	305.94
276.799	303.94
277.031	325.94
277.262	334.94
277.494	332.94
277.726	322.94
277.957	310.94
278.189	323.94
278.421	320.94
278.652	302.94
278.884	300.94
279.115	311.94
279.347	302.94
279.579	293.94
279.81	305.94
280.042	317.94
280.273	326.94
280.505	310.94
280.736	304.94
280.968	305.94
281.199	297.94
281.431	309.94
281.662	315.94
281.894	320.94
282.125	315.94
282.356	309.94
282.588	332.94
282.819	332.94
283.051	324.94
283.282	302.94
283.513	320.94
283.745	333.94
283.976	333.94
284.207	324.94
284.439	319.94
284.67	321.94
284.901	330.94
285.132	336.94
285.364	342.94
285.595	323.94
285.826	342.94
286.057	343.94
286.288	339.94
286.52	357.94
286.751	344.94
286.982	324.94
287.213	332.94
287.444	348.94
287.675	347.94
287.906	355.94
288.138	357.94
288.369	338.94
288.6	343.94
288.831	353.94
289.062	346.94
289.293	345.94
289.524	353.94
289.755	330.94
289.986	339.94
290.217	345.94
290.448	341.94
290.679	360.94
290.91	349.94
291.141	337.94
291.371	364.94
291.602	368.94
291.833	345.94
292.064	354.94
292.295	363.94
292.526	360.94
292.757	346.94
292.987	366.94
293.218	365.94
293.449	360.94
293.68	362.94
293.91	353.94
294.141	367.94
294.372	365.94
294.603	343.94
294.833	360.94
295.064	364.94
295.295	379.94
295.525	363.94
295.756	370.94
295.987	363.94
296.217	380.94
296.448	373.94
296.679	364.94
296.909	360.94
297.14	371.94
297.37	374.94
297.601	361.94
297.831	369.94
298.062	391.94
298.292	387.94
298.523	370.94
298.753	385.94
298.984	364.94
299.214	377.94
299.445	362.94
299.675	357.94
299.905	373.94
300.136	359.94
300.366	395.94
300.597	397.94
300.827	403.94
301.057	388.94
301.288	393.94
301.518	413.94
301.748	395.94
301.979	411.94
302.209	400.94
302.439	413.94
302.669	384.94
302.9	387.94
303.13	398.94
303.36	404.94
303.59	414.94
303.82	393.94
304.051	410.94
304.281	394.94
304.511	407.94
304.741	404.94
304.971	413.94
305.201	430.94
305.431	386.94
305.661	387.94
305.891	390.94
306.121	395.94
306.352	404.94
306.582	399.94
306.812	391.94
307.042	403.94
307.272	408.94
307.502	392.94
307.731	410.94
307.961	402.94
308.191	383.94
308.421	396.94
308.651	399.94
308.881	417.94
309.111	395.94
309.341	375.94
309.571	415.94
309.8	429.94
310.03	414.94
310.26	416.94
310.49	398.94
310.72	414.94
310.949	449.94
311.179	417.94
311.409	422.94
311.639	408.94
311.868	411.94
312.098	418.94
312.328	437.94
312.557	437.94
312.787	452.94
313.017	424.94
313.246	441.94
313.476	421.94
313.706	437.94
313.935	439.94
314.165	461.94
314.394	457.94
314.624	456.94
314.853	466.94
315.083	441.94
315.312	442.94
315.542	439.94
315.771	441.94
316.001	434.94
316.23	431.94
316.46	445.94
316.689	433.94
316.919	452.94
317.148	451.94
317.377	445.94
317.607	454.94
317.836	434.94
318.065	442.94
318.295	460.94
318.524	437.94
318.753	451.94
318.983	447.94
319.212	423.94
319.441	423.94
319.67	460.94
319.9	442.94
320.129	449.94
320.358	461.94
320.587	458.94
320.816	475.94
321.046	454.94
321.275	447.94
321.504	434.94
321.733	446.94
321.962	443.94
322.191	435.94
322.42	474.94
322.649	465.94
322.878	469.94
323.108	509.94
323.337	479.94
323.566	505.94
323.795	501.94
324.024	544.94
324.253	598.94
324.482	747.94
324.71	1065.94
324.939	1478.94
325.168	1283.94
325.397	755.94
325.626	589.94
325.855	546.94
326.084	525.94
326.313	538.94
326.542	523.94
326.77	556.94
326.999	594.94
327.228	723.94
327.457	994.94
327.686	1199.94
327.914	842.94
328.143	621.94
328.372	569.94
328.6	577.94
328.829	562.94
329.058	556.94
329.287	576.94
329.515	557.94
329.744	543.94
329.972	524.94
330.201	564.94
330.43	589.94
330.658	566.94
330.887	586.94
331.115	587.94
331.344	580.94
331.572	557.94
331.801	564.94
332.03	541.94
332.258	544.94
332.486	564.94
332.715	576.94
332.943	562.94
333.172	539.94
333.4	585.94
333.629	611.94
333.857	627.94
334.085	618.94
334.314	635.94
334.542	631.94
334.771	651.94
334.999	620.94
335.227	600.94
335.455	567.94
335.684	572.94
335.912	598.94
336.14	563.94
336.369	539.94
336.597	545.94
336.825	566.94
337.053	558.94
337.281	570.94
337.51	563.94
337.738	555.94
337.966	564.94
338.194	537.94
338.422	549.94
338.65	535.94
338.878	535.94
339.106	526.94
339.334	543.94
339.562	515.94
339.79	525.94
340.018	523.94
340.246	499.94
340.474	525.94
340.702	515.94
340.93	525.94
341.158	513.94
341.386	509.94
341.614	510.94
341.842	533.94
342.07	509.94
342.298	496.94
342.526	497.94
342.754	497.94
342.981	510.94
343.209	507.94
343.437	524.94
343.665	522.94
343.893	547.94
344.12	572.94
344.348	569.94
344.576	573.94
344.804	557.94
345.031	520.94
345.259	528.94
345.487	493.94
345.714	515.94
345.942	485.94
346.17	486.94
346.397	471.94
346.625	489.94
346.853	492.94
347.08	490.94
347.308	488.94
347.535	475.94
347.763	508.94
347.99	485.94
348.218	525.94
348.445	505.94
348.673	502.94
348.9	500.94
349.128	492.94
349.355	483.94
349.583	483.94
349.81	477.94
350.037	479.94
350.265	468.94
350.492	493.94
350.72	492.94
350.947	487.94
351.174	490.94
351.402	490.94
351.629	518.94
351.856	486.94
352.083	491.94
352.311	493.94
352.538	473.94
352.765	486.94
352.992	488.94
353.22	497.94
353.447	485.94
353.674	479.94
353.901	468.94
354.128	471.94
354.355	487.94
354.583	485.94
354.81	451.94
355.037	472.94
355.264	486.94
355.491	475.94
355.718	481.94
355.945	474.94
356.172	468.94
356.399	468.94
356.626	470.94
356.853	461.94
357.08	449.94
357.307	457.94
357.534	443.94
357.761	477.94
357.988	459.94
358.215	483.94
358.441	476.94
358.668	483.94
358.895	477.94
359.122	496.94
359.349	496.94
359.576	518.94
359.802	488.94
360.029	497.94
360.256	528.94
360.483	532.94
360.709	467.94
360.936	497.94
361.163	491.94
361.39	497.94
361.616	493.94
361.843	484.94
362.07	499.94
362.296	485.94
362.523	506.94
362.749	495.94
362.976	490.94
363.203	487.94
363.429	494.94
363.656	485.94
363.882	481.94
364.109	487.94
364.335	476.94
364.562	471.94
364.788	478.94
365.015	488.94
365.241	492.94
365.468	478.94
365.694	497.94
365.92	498.94
366.147	451.94
366.373	473.94
366.599	481.94
366.826	483.94
367.052	470.94
367.278	468.94
367.505	490.94
367.731	490.94
367.957	483.94
368.184	475.94
368.41	469.94
368.636	498.94
368.862	500.94
369.089	499.94
369.315	491.94
369.541	491.94
369.767	481.94
369.993	500.94
370.219	491.94
370.445	483.94
370.672	513.94
370.898	498.94
371.124	521.94
371.35	505.94
371.576	504.94
371.802	529.94
372.028	513.94
372.254	489.94
372.48	499.94
372.706	500.94
372.932	495.94
373.158	521.94
373.384	497.94
373.61	503.94
373.835	520.94
374.061	527.94
374.287	522.94
374.513	504.94
374.739	514.94
374.965	530.94
375.191	563.94
375.416	568.94
375.642	523.94
375.868	525.94
376.094	494.94
376.319	518.94
376.545	503.94
376.771	520.94
376.997	494.94
377.222	519.94
377.448	509.94
377.674	509.94
377.899	492.94
378.125	509.94
378.35	513.94
378.576	504.94
378.802	466.94
379.027	504.94
379.253	499.94
379.478	498.94
379.704	503.94
379.929	517.94
380.155	509.94
380.38	518.94
380.606	490.94
380.831	521.94
381.057	503.94
381.282	484.94
381.507	486.94
381.733	513.94
381.958	513.94
382.184	531.94
382.409	508.94
382.634	506.94
382.86	535.94
383.085	513.94
383.31	524.94
383.535	524.94
383.761	523.94
383.986	549.94
384.211	542.94
384.436	541.94
384.662	551.94
384.887	575.94
385.112	558.94
385.337	609.94
385.562	575.94
385.787	584.94
386.013	611.94
386.238	587.94
386.463	583.94
386.688	589.94
386.913	562.94
387.138	581.94
387.363	580.94
387.588	565.94
387.813	583.94
388.038	563.94
388.263	550.94
388.488	582.94
388.713	580.94
388.938	578.94
389.163	579.94
389.387	542.94
389.612	589.94
389.837	567.94
390.062	559.94
390.287	588.94
390.512	564.94
390.736	562.94
390.961	591.94
391.186	607.94
391.411	604.94
391.636	600.94
391.86	626.94
392.085	638.94
392.31	641.94
392.534	632.94
392.759	611.94
392.984	595.94
393.208	583.94
393.433	595.94
393.658	627.94
393.882	608.94
394.107	589.94
394.331	605.94
394.556	593.94
394.78	599.94
395.005	595.94
395.229	610.94
395.454	622.94
395.678	631.94
395.903	636.94
396.127	631.94
396.352	648.94
396.576	611.94
396.801	589.94
397.025	630.94
397.249	620.94
397.474	635.94
397.698	639.94
397.922	652.94
398.147	609.94
398.371	681.94
398.595	680.94
398.82	679.94
399.044	707.94
399.268	760.94
399.492	845.94
399.717	921.94
399.941	921.94
400.165	917.94
400.389	846.94
400.613	810.94
400.837	726.94
401.062	711.94
401.286	686.94
401.51	692.94
401.734	698.94
401.958	693.94
402.182	683.94
402.406	682.94
402.63	716.94
402.854	705.94
403.078	730.94
403.302	753.94
403.526	759.94
403.75	754.94
403.974	756.94
404.198	757.94
404.422	755.94
404.645	766.94
404.869	750.94
405.093	807.94
405.317	838.94
405.541	852.94
405.765	795.94
405.988	750.94
406.212	748.94
406.436	794.94
406.66	785.94
406.883	791.94
407.107	812.94
407.331	854.94
407.555	921.94
407.778	901.94
408.002	876.94
408.226	845.94
408.449	801.94
408.673	794.94
408.896	813.94
409.12	820.94
409.344	774.94
409.567	758.94
409.791	767.94
410.014	745.94
410.238	725.94
410.461	746.94
410.685	700.94
410.908	743.94
411.132	743.94
411.355	775.94
411.578	769.94
411.802	712.94
412.025	721.94
412.249	731.94
412.472	708.94
412.695	765.94
412.919	772.94
413.142	714.94
413.365	710.94
413.589	706.94
413.812	726.94
414.035	693.94
414.258	690.94
414.482	684.94
414.705	701.94
414.928	694.94
415.151	710.94
415.374	698.94
415.597	681.94
415.821	686.94
416.044	672.94
416.267	642.94
416.49	694.94
416.713	673.94
416.936	679.94
417.159	678.94
417.382	679.94
417.605	651.94
417.828	685.94
418.051	686.94
418.274	707.94
418.497	675.94
418.72	706.94
418.943	686.94
419.166	709.94
419.389	782.94
419.611	730.94
419.834	718.94
420.057	723.94
420.28	710.94
420.503	713.94
420.726	693.94
420.948	706.94
421.171	742.94
421.394	749.94
421.617	705.94
421.839	698.94
422.062	686.94
422.285	689.94
422.507	736.94
422.73	802.94
422.953	806.94
423.175	748.94
423.398	718.94
423.621	706.94
423.843	744.94
424.066	760.94
424.288	759.94
424.511	726.94
424.733	798.94
424.956	838.94
425.178	795.94
425.401	804.94
425.623	827.94
425.846	750.94
426.068	689.94
426.291	700.94
426.513	691.94
426.735	696.94
426.958	721.94
427.18	776.94
427.402	877.94
427.625	923.94
427.847	821.94
428.069	769.94
428.292	713.94
428.514	670.94
428.736	661.94
428.958	670.94
429.181	640.94
429.403	612.94
429.625	643.94
429.847	667.94
430.069	694.94
430.292	712.94
430.514	659.94
430.736	635.94
430.958	629.94
431.18	630.94
431.402	623.94
431.624	605.94
431.846	645.94
432.068	644.94
432.29	619.94
432.512	633.94
432.734	650.94
432.956	634.94
433.178	625.94
433.4	624.94
433.622	639.94
433.844	628.94
434.066	622.94
434.287	653.94
434.509	656.94
434.731	667.94
434.953	668.94
435.175	711.94
435.397	698.94
435.618	696.94
435.84	719.94
436.062	765.94
436.284	811.94
436.505	719.94
436.727	675.94
436.949	648.94
437.17	651.94
437.392	647.94
437.614	647.94
437.835	657.94
438.057	707.94
438.278	802.94
438.5	826.94
438.721	837.94
438.943	829.94
439.165	691.94
439.386	666.94
439.608	696.94
439.829	703.94
440.05	711.94
440.272	722.94
440.493	684.94
440.715	679.94
440.936	705.94
441.158	678.94
441.379	679.94
441.6	674.94
441.822	698.94
442.043	757.94
442.264	783.94
442.486	797.94
442.707	732.94
442.928	711.94
443.149	713.94
443.371	727.94
443.592	738.94
443.813	833.94
444.034	878.94
444.255	825.94
444.476	763.94
444.698	789.94
444.919	772.94
445.14	895.94
445.361	817.94
445.582	725.94
445.803	782.94
446.024	831.94
446.245	795.94
446.466	792.94
446.687	703.94
446.908	680.94
447.129	651.94
447.35	626.94
447.571	627.94
447.792	618.94
448.013	610.94
448.234	632.94
448.455	654.94
448.675	707.94
448.896	827.94
449.117	738.94
449.338	711.94
449.559	748.94
449.779	843.94
450	682.94
450.221	631.94
450.442	614.94
450.662	600.94
450.883	598.94
451.104	625.94
451.324	597.94
451.545	565.94
451.766	594.94
451.986	572.94
452.207	572.94
452.428	583.94
452.648	558.94
452.869	575.94
453.089	586.94
453.31	579.94
453.53	587.94
453.751	566.94
453.971	571.94
454.192	585.94
454.412	561.94
454.633	568.94
454.853	559.94
455.073	570.94
455.294	575.94
455.514	631.94
455.734	617.94
455.955	550.94
456.175	547.94
456.395	543.94
456.616	545.94
456.836	530.94
457.056	544.94
457.276	541.94
457.497	531.94
457.717	558.94
457.937	570.94
458.157	574.94
458.377	571.94
458.598	589.94
458.818	612.94
459.038	673.94
459.258	682.94
459.478	661.94
459.698	651.94
459.918	657.94
460.138	641.94
460.358	676.94
460.578	688.94
460.798	718.94
461.018	721.94
461.238	686.94
461.458	683.94
461.678	676.94
461.898	702.94
462.118	723.94
462.338	714.94
462.558	748.94
462.777	745.94
462.997	799.94
463.217	825.94
463.437	828.94
463.657	818.94
463.876	784.94
464.096	773.94
464.316	789.94
464.536	771.94
464.755	775.94
464.975	754.94
465.195	746.94
465.414	780.94
465.634	693.94
465.854	669.94
466.073	628.94
466.293	640.94
466.512	624.94
466.732	615.94
466.951	595.94
467.171	606.94
467.391	606.94
467.61	600.94
467.829	598.94
468.049	582.94
468.268	615.94
468.488	589.94
468.707	587.94
468.927	574.94
469.146	588.94
469.365	587.94
469.585	581.94
469.804	627.94
470.023	616.94
470.243	634.94
470.462	635.94
470.681	632.94
470.901	653.94
471.12	640.94
471.339	646.94
471.558	614.94
471.777	622.94
471.997	599.94
472.216	612.94
472.435	647.94
472.654	633.94
472.873	603.94
473.092	613.94
473.311	605.94
473.53	593.94
473.749	620.94
473.968	595.94
474.187	661.94
474.406	695.94
474.625	633.94
474.844	603.94
475.063	598.94
475.282	590.94
475.501	621.94
475.72	625.94
475.939	618.94
476.158	625.94
476.377	602.94
476.596	629.94
476.814	629.94
477.033	623.94
477.252	647.94
477.471	651.94
477.69	691.94
477.908	669.94
478.127	676.94
478.346	685.94
478.564	687.94
478.783	714.94
479.002	721.94
479.22	711.94
479.439	712.94
479.658	737.94
479.876	714.94
480.095	749.94
480.313	780.94
480.532	775.94
480.751	776.94
480.969	759.94
481.188	807.94
481.406	835.94
481.624	753.94
481.843	739.94
482.061	719.94
482.28	697.94
482.498	729.94
482.717	668.94
482.935	695.94
483.153	707.94
483.372	679.94
483.59	703.94
483.808	701.94
484.027	715.94
484.245	702.94
484.463	698.94
484.681	747.94
484.9	723.94
485.118	718.94
485.336	712.94
485.554	728.94
485.772	722.94
485.99	769.94
486.209	754.94
486.427	748.94
486.645	745.94
486.863	761.94
487.081	721.94
487.299	746.94
487.517	721.94
487.735	739.94
487.953	744.94
488.171	735.94
488.389	758.94
488.607	735.94
488.825	745.94
489.043	754.94
489.261	748.94
489.479	733.94
489.696	750.94
489.914	740.94
490.132	769.94
490.35	773.94
490.568	775.94
490.786	775.94
491.003	783.94
491.221	773.94
491.439	813.94
491.657	806.94
491.874	804.94
492.092	801.94
492.31	807.94
492.527	814.94
492.745	851.94
492.963	844.94
493.18	858.94
493.398	837.94
493.615	846.94
493.833	863.94
494.05	856.94
494.268	838.94
494.485	843.94
494.703	869.94
494.92	851.94
495.138	867.94
495.355	850.94
495.573	873.94
495.79	846.94
496.008	850.94
496.225	848.94
496.442	889.94
496.66	891.94
496.877	869.94
497.094	879.94
497.312	903.94
497.529	947.94
497.746	940.94
497.963	967.94
498.181	995.94
498.398	1009.94
498.615	1055.94
498.832	1097.94
499.049	1126.94
499.267	1219.94
499.484	1277.94
499.701	1349.94
499.918	1470.94
500.135	1561.94
500.352	1679.94
500.569	1726.94
500.786	1778.94
501.003	1703.94
501.22	1593.94
501.437	1465.94
501.654	1364.94
501.871	1270.94
502.088	1198.94
502.305	1133.94
502.522	1083.94
502.739	1055.94
502.956	1001.94
503.172	992.94
503.389	965.94
503.606	948.94
503.823	936.94
504.04	950.94
504.256	929.94
504.473	897.94
504.69	955.94
504.907	921.94
505.123	909.94
505.34	860.94
505.557	830.94
505.773	819.94
505.99	810.94
506.207	804.94
506.423	821.94
506.64	805.94
506.856	763.94
507.073	779.94
507.289	769.94
507.506	770.94
507.722	780.94
507.939	786.94
508.155	767.94
508.372	751.94
508.588	748.94
508.805	734.94
509.021	737.94
509.238	738.94
509.454	751.94
509.67	761.94
509.887	723.94
510.103	717.94
510.319	732.94
510.536	789.94
510.752	1125.94
510.968	955.94
511.184	749.94
511.401	729.94
511.617	710.94
511.833	686.94
512.049	711.94
512.265	714.94
512.481	723.94
512.698	713.94
512.914	705.94
513.13	713.94
513.346	694.94
513.562	710.94
513.778	714.94
513.994	703.94
514.21	713.94
514.426	735.94
514.642	744.94
514.858	747.94
515.074	768.94
515.29	842.94
515.506	1111.94
515.721	992.94
515.937	802.94
516.153	774.94
516.369	773.94
516.585	802.94
516.801	808.94
517.016	802.94
517.232	804.94
517.448	834.94
517.664	853.94
517.879	888.94
518.095	875.94
518.311	825.94
518.527	819.94
518.742	842.94
518.958	802.94
519.173	763.94
519.389	775.94
519.605	741.94
519.82	706.94
520.036	714.94
520.251	744.94
520.467	759.94
520.682	735.94
520.898	749.94
521.113	753.94
521.329	768.94
521.544	794.94
521.76	886.94
521.975	1262.94
522.19	1297.94
522.406	877.94
522.621	707.94
522.836	679.94
523.052	695.94
523.267	642.94
523.482	654.94
523.698	635.94
523.913	649.94
524.128	645.94
524.343	644.94
524.559	627.94
524.774	628.94
524.989	621.94
525.204	619.94
525.419	637.94
525.634	605.94
525.849	629.94
526.064	612.94
526.28	613.94
526.495	626.94
526.71	625.94
526.925	601.94
527.14	612.94
527.355	599.94
527.57	604.94
527.785	590.94
527.999	599.94
528.214	632.94
528.429	616.94
528.644	604.94
528.859	592.94
529.074	594.94
529.289	617.94
529.503	667.94
529.718	640.94
529.933	622.94
530.148	604.94
530.363	589.94
530.577	613.94
530.792	597.94
531.007	606.94
531.221	619.94
531.436	609.94
531.651	588.94
531.865	603.94
532.08	619.94
532.295	607.94
532.509	588.94
532.724	581.94
532.938	598.94
533.153	590.94
533.367	584.94
533.582	579.94
533.796	584.94
534.011	587.94
534.225	572.94
534.44	607.94
534.654	588.94
534.868	578.94
535.083	602.94
535.297	591.94
535.511	587.94
535.726	609.94
535.94	613.94
536.154	575.94
536.369	555.94
536.583	564.94
536.797	591.94
537.011	562.94
537.225	565.94
537.44	537.94
537.654	564.94
537.868	568.94
538.082	573.94
538.296	574.94
538.51	561.94
538.724	565.94
538.938	559.94
539.153	555.94
539.367	567.94
539.581	550.94
539.795	553.94
540.009	561.94
540.222	545.94
540.436	550.94
540.65	561.94
540.864	563.94
541.078	564.94
541.292	556.94
541.506	566.94
541.72	558.94
541.934	555.94
542.147	550.94
542.361	558.94
542.575	537.94
542.789	534.94
543.002	566.94
543.216	538.94
543.43	564.94
543.644	551.94
543.857	564.94
544.071	530.94
544.285	579.94
544.498	570.94
544.712	553.94
544.925	547.94
545.139	530.94
545.352	561.94
545.566	551.94
545.779	554.94
545.993	562.94
546.206	563.94
546.42	568.94
546.633	564.94
546.847	547.94
547.06	552.94
547.274	544.94
547.487	577.94
547.7	550.94
547.914	539.94
548.127	553.94
548.34	565.94
548.554	545.94
548.767	541.94
548.98	571.94
549.193	549.94
549.407	572.94
549.62	557.94
549.833	577.94
550.046	558.94
550.259	550.94
550.473	576.94
550.686	565.94
550.899	548.94
551.112	544.94
551.325	550.94
551.538	548.94
551.751	559.94
551.964	561.94
552.177	560.94
552.39	569.94
552.603	577.94
552.816	579.94
553.029	595.94
553.242	582.94
553.455	606.94
553.667	609.94
553.88	604.94
554.093	589.94
554.306	586.94
554.519	577.94
554.732	556.94
554.944	558.94
555.157	537.94
555.37	524.94
555.583	542.94
555.795	559.94
556.008	518.94
556.221	504.94
556.433	518.94
556.646	541.94
556.859	512.94
557.071	478.94
557.284	488.94
557.496	495.94
557.709	488.94
557.921	478.94
558.134	495.94
558.346	499.94
558.559	482.94
558.771	492.94
558.984	475.94
559.196	505.94
559.409	479.94
559.621	480.94
559.833	489.94
560.046	462.94
560.258	487.94
560.47	485.94
560.683	502.94
560.895	495.94
561.107	465.94
561.32	490.94
561.532	485.94
561.744	481.94
561.956	487.94
562.168	477.94
562.381	499.94
562.593	472.94
562.805	486.94
563.017	499.94
563.229	499.94
563.441	497.94
563.653	492.94
563.865	513.94
564.077	513.94
564.289	514.94
564.501	501.94
564.713	508.94
564.925	517.94
565.137	526.94
565.349	547.94
565.561	555.94
565.773	571.94
565.985	601.94
566.197	587.94
566.408	650.94
566.62	680.94
566.832	743.94
567.044	735.94
567.255	738.94
567.467	747.94
567.679	751.94
567.891	812.94
568.102	811.94
568.314	780.94
568.526	739.94
568.737	701.94
568.949	659.94
569.161	610.94
569.372	600.94
569.584	574.94
569.795	533.94
570.007	524.94
570.218	538.94
570.43	517.94
570.641	525.94
570.853	519.94
571.064	531.94
571.276	514.94
571.487	470.94
571.698	481.94
571.91	483.94
572.121	472.94
572.333	466.94
572.544	454.94
572.755	460.94
572.966	449.94
573.178	444.94
573.389	426.94
573.6	420.94
573.811	409.94
574.023	435.94
574.234	419.94
574.445	435.94
574.656	433.94
574.867	414.94
575.078	439.94
575.289	413.94
575.501	433.94
575.712	425.94
575.923	420.94
576.134	408.94
576.345	399.94
576.556	414.94
576.767	415.94
576.978	403.94
577.188	397.94
577.399	399.94
577.61	381.94
577.821	418.94
578.032	406.94
578.243	416.94
578.454	563.94
578.665	461.94
578.875	389.94
579.086	387.94
579.297	403.94
579.508	393.94
579.718	385.94
579.929	381.94
580.14	391.94
580.35	380.94
580.561	407.94
580.772	390.94
580.982	381.94
581.193	374.94
581.403	386.94
581.614	381.94
581.825	391.94
582.035	388.94
582.246	377.94
582.456	369.94
582.667	358.94
582.877	371.94
583.087	381.94
583.298	366.94
583.508	374.94
583.719	366.94
583.929	391.94
584.139	353.94
584.35	352.94
584.56	367.94
584.77	374.94
584.981	371.94
585.191	366.94
585.401	379.94
585.611	385.94
585.821	376.94
586.032	359.94
586.242	346.94
586.452	358.94
586.662	371.94
586.872	360.94
587.082	374.94
587.292	373.94
587.502	361.94
587.713	365.94
587.923	371.94
588.133	356.94
588.343	369.94
588.553	371.94
588.762	369.94
588.972	357.94
589.182	368.94
589.392	383.94
589.602	372.94
589.812	388.94
590.022	379.94
590.232	378.94
590.441	360.94
590.651	372.94
590.861	350.94
591.071	383.94
591.281	362.94
591.49	391.94
591.7	382.94
591.91	382.94
592.119	394.94
592.329	397.94
592.539	395.94
592.748	422.94
592.958	433.94
593.167	440.94
593.377	445.94
593.587	445.94
593.796	431.94
594.006	439.94
594.215	458.94
594.424	451.94
594.634	451.94
594.843	444.94
595.053	432.94
595.262	418.94
595.472	400.94
595.681	385.94
595.89	399.94
596.1	372.94
596.309	357.94
596.518	351.94
596.727	346.94
596.937	362.94
597.146	360.94
597.355	343.94
597.564	337.94
597.774	340.94
597.983	332.94
598.192	314.94
598.401	351.94
598.61	344.94
598.819	334.94
599.028	335.94
599.237	336.94
599.446	325.94
599.655	336.94
599.864	325.94
600.073	314.94
600.282	311.94
600.491	318.94
600.7	324.94
600.909	342.94
601.118	317.94
601.327	315.94
601.536	325.94
601.745	307.94
601.953	315.94
602.162	308.94
602.371	307.94
602.58	298.94
602.789	332.94
602.997	315.94
603.206	303.94
603.415	296.94
603.623	307.94
603.832	305.94
604.041	299.94
604.249	323.94
604.458	299.94
604.666	294.94
604.875	301.94
605.084	292.94
605.292	300.94
605.501	305.94
605.709	299.94
605.918	286.94
606.126	300.94
606.334	290.94
606.543	290.94
606.751	310.94
606.96	307.94
607.168	286.94
607.376	285.94
607.585	293.94
607.793	302.94
608.001	301.94
608.21	287.94
608.418	297.94
608.626	286.94
608.834	309.94
609.043	279.94
609.251	283.94
609.459	301.94
609.667	290.94
609.875	307.94
610.083	290.94
610.291	295.94
610.499	295.94
610.707	282.94
610.916	289.94
611.124	305.94
611.332	292.94
611.54	307.94
611.748	309.94
611.955	299.94
612.163	274.94
612.371	305.94
612.579	287.94
612.787	277.94
612.995	288.94
613.203	285.94
613.411	293.94
613.618	287.94
613.826	270.94
614.034	282.94
614.242	292.94
614.449	286.94
614.657	307.94
614.865	278.94
615.072	273.94
615.28	271.94
615.488	272.94
615.695	301.94
615.903	286.94
616.111	286.94
616.318	296.94
616.526	290.94
616.733	282.94
616.941	269.94
617.148	263.94
617.356	276.94
617.563	281.94
617.771	298.94
617.978	276.94
618.185	271.94
618.393	273.94
618.6	281.94
618.807	268.94
619.015	290.94
619.222	271.94
619.429	278.94
619.637	281.94
619.844	265.94
620.051	275.94
620.258	267.94
620.466	268.94
620.673	262.94
620.88	267.94
621.087	260.94
621.294	264.94
621.501	273.94
621.708	272.94
621.915	270.94
622.122	257.94
622.329	266.94
622.536	278.94
622.743	267.94
622.95	257.94
623.157	254.94
623.364	245.94
623.571	265.94
623.778	249.94
623.985	265.94
624.192	270.94
624.399	255.94
624.606	240.94
624.812	265.94
625.019	245.94
625.226	238.94
625.433	257.94
625.639	270.94
625.846	238.94
626.053	258.94
626.259	245.94
626.466	254.94
626.673	257.94
626.879	249.94
627.086	253.94
627.293	253.94
627.499	247.94
627.706	245.94
627.912	251.94
628.119	238.94
628.325	245.94
628.532	248.94
628.738	231.94
628.945	233.94
629.151	233.94
629.357	227.94
629.564	247.94
629.77	230.94
629.976	227.94
630.183	229.94
630.389	240.94
630.595	236.94
630.802	231.94
631.008	229.94
631.214	225.94
631.42	228.94
631.627	241.94
631.833	215.94
632.039	218.94
632.245	207.94
632.451	219.94
632.657	235.94
632.863	227.94
633.069	222.94
633.275	211.94
633.481	210.94
633.688	209.94
633.893	225.94
634.099	231.94
634.305	222.94
634.511	232.94
634.717	213.94
634.923	213.94
635.129	221.94
635.335	210.94
635.541	218.94
635.747	198.94
635.952	216.94
636.158	220.94
636.364	210.94
636.57	213.94
636.775	204.94
636.981	212.94
637.187	222.94
637.392	210.94
637.598	210.94
637.804	211.94
638.009	217.94
638.215	213.94
638.421	199.94
638.626	210.94
638.832	223.94
639.037	219.94
639.243	204.94
639.448	211.94
639.654	222.94
639.859	174.94
640.065	186.94
640.27	213.94
640.475	207.94
640.681	204.94
640.886	181.94
641.091	206.94
641.297	212.94
641.502	196.94
641.707	199.94
641.913	204.94
642.118	174.94
642.323	181.94
642.528	210.94
642.733	180.94
642.939	202.94
643.144	197.94
643.349	185.94
643.554	187.94
643.759	207.94
643.964	183.94
644.169	187.94
644.374	193.94
644.579	199.94
644.784	191.94
644.989	190.94
645.194	182.94
645.399	188.94
645.604	198.94
645.809	209.94
646.014	193.94
646.219	196.94
646.423	193.94
646.628	191.94
646.833	203.94
647.038	192.94
647.243	208.94
647.447	198.94
647.652	195.94
647.857	194.94
648.062	216.94
648.266	204.94
648.471	199.94
648.676	196.94
648.88	201.94
649.085	214.94
649.289	204.94
649.494	191.94
649.698	226.94
649.903	198.94
650.107	185.94
650.312	181.94
650.516	200.94
650.721	180.94
650.925	178.94
651.13	186.94
651.334	180.94
651.539	173.94
651.743	163.94
651.947	172.94
652.152	164.94
652.356	170.94
652.56	145.94
652.764	171.94
652.969	165.94
653.173	160.94
653.377	159.94
653.581	149.94
653.785	154.94
653.99	165.94
654.194	169.94
654.398	157.94
654.602	154.94
654.806	153.94
655.01	157.94
655.214	168.94
655.418	151.94
655.622	142.94
655.826	160.94
656.03	157.94
656.234	165.94
656.438	157.94
656.642	158.94
656.846	152.94
657.049	151.94
657.253	158.94
657.457	129.94
657.661	131.94
657.865	134.94
658.068	115.94
658.272	132.94
658.476	108.94
658.68	120.94
658.883	118.94
659.087	105.94
659.291	110.94
659.494	116.94
659.698	108.94
659.901	124.94
660.105	97.94
660.309	95.94
660.512	101.94
660.716	98.94
660.919	109.94
661.123	87.94
661.326	105.94
661.53	97.94
661.733	89.94
661.936	95.94
662.14	97.94
662.343	88.94
662.546	83.94
662.75	86.94
662.953	79.94
663.156	84.94
663.36	87.94
663.563	94.94
663.766	79.94
663.969	88.94
664.173	99.94
664.376	97.94
664.579	90.94
664.782	84.94
664.985	79.94
665.188	78.94
665.391	94.94
665.594	92.94
665.797	74.94
666	84.94
666.203	87.94
666.406	79.94
666.609	87.94
666.812	98.94
667.015	88.94
667.218	86.94
667.421	82.94
667.624	86.94
667.827	82.94
668.03	85.94
668.232	91.94
668.435	86.94
668.638	83.94
668.841	97.94
669.043	86.94
669.246	89.94
669.449	85.94
669.651	86.94
669.854	71.94
670.057	84.94
670.259	85.94
670.462	71.94
670.665	77.94
670.867	83.94
671.07	98.94
671.272	81.94
671.475	75.94
671.677	88.94
671.88	81.94
672.082	78.94
672.284	78.94
672.487	85.94
672.689	86.94
672.892	91.94
