Data from 1963.PennyLincolnUp.Lamp.En5.5.200Scan.071719.P1._HRD10591_13-57-36-063.txt Node
Date: Thu Jul 18 13:57:36 EDT 2019
User: cochatt
Spectrometer: HR+D1059
Trigger mode: 1
Integration Time (sec): 1.000000E-1
Scans to average: 1
Electric dark correction enabled: true
Nonlinearity correction enabled: false
Boxcar width: 0
XAxis mode: Wavelengths
Number of Pixels in Spectrum: 2048
>>>>>Begin Spectral Data<<<<<
223.165	-3.81
223.4	-3.81
223.635	-3.81
223.869	-23.81
224.104	-24.81
224.338	-10.81
224.573	-20.81
224.808	-5.81
225.042	-19.81
225.277	-6.81
225.511	2.19
225.746	11.19
225.98	11.19
226.215	16.19
226.449	-4.81
226.683	26.19
226.918	23.19
227.152	31.19
227.387	24.19
227.621	35.19
227.856	48.19
228.09	52.19
228.324	57.19
228.559	51.19
228.793	55.19
229.027	93.19
229.262	93.19
229.496	104.19
229.73	121.19
229.964	129.19
230.199	129.19
230.433	108.19
230.667	103.19
230.901	115.19
231.136	107.19
231.37	113.19
231.604	110.19
231.838	110.19
232.072	121.19
232.306	115.19
232.541	125.19
232.775	136.19
233.009	125.19
233.243	118.19
233.477	112.19
233.711	123.19
233.945	132.19
234.179	119.19
234.413	131.19
234.647	141.19
234.881	113.19
235.115	137.19
235.349	138.19
235.583	128.19
235.817	123.19
236.051	115.19
236.285	130.19
236.519	143.19
236.753	145.19
236.987	145.19
237.221	168.19
237.455	183.19
237.689	174.19
237.922	148.19
238.156	131.19
238.39	145.19
238.624	108.19
238.858	145.19
239.091	143.19
239.325	139.19
239.559	143.19
239.793	134.19
240.027	136.19
240.26	137.19
240.494	151.19
240.728	150.19
240.961	151.19
241.195	144.19
241.429	137.19
241.662	155.19
241.896	145.19
242.13	145.19
242.363	150.19
242.597	123.19
242.83	149.19
243.064	157.19
243.298	151.19
243.531	158.19
243.765	138.19
243.998	148.19
244.232	146.19
244.465	153.19
244.699	143.19
244.932	151.19
245.166	149.19
245.399	156.19
245.633	151.19
245.866	140.19
246.099	156.19
246.333	176.19
246.566	169.19
246.8	160.19
247.033	164.19
247.266	168.19
247.5	163.19
247.733	172.19
247.966	175.19
248.2	185.19
248.433	176.19
248.666	201.19
248.899	197.19
249.133	199.19
249.366	205.19
249.599	192.19
249.832	199.19
250.066	191.19
250.299	201.19
250.532	190.19
250.765	200.19
250.998	204.19
251.231	217.19
251.465	211.19
251.698	213.19
251.931	217.19
252.164	214.19
252.397	209.19
252.63	207.19
252.863	211.19
253.096	224.19
253.329	217.19
253.562	223.19
253.795	215.19
254.028	231.19
254.261	213.19
254.494	240.19
254.727	255.19
254.96	259.19
255.193	259.19
255.426	258.19
255.659	229.19
255.892	215.19
256.124	220.19
256.357	233.19
256.59	236.19
256.823	237.19
257.056	213.19
257.289	223.19
257.521	215.19
257.754	224.19
257.987	218.19
258.22	237.19
258.452	229.19
258.685	219.19
258.918	220.19
259.151	232.19
259.383	237.19
259.616	230.19
259.849	229.19
260.081	236.19
260.314	250.19
260.547	271.19
260.779	239.19
261.012	243.19
261.244	243.19
261.477	224.19
261.71	243.19
261.942	233.19
262.175	235.19
262.407	255.19
262.64	222.19
262.872	220.19
263.105	228.19
263.337	252.19
263.57	240.19
263.802	238.19
264.035	231.19
264.267	237.19
264.499	229.19
264.732	244.19
264.964	238.19
265.197	236.19
265.429	235.19
265.661	223.19
265.894	228.19
266.126	240.19
266.358	252.19
266.591	235.19
266.823	239.19
267.055	250.19
267.287	259.19
267.52	256.19
267.752	269.19
267.984	273.19
268.216	252.19
268.448	260.19
268.681	272.19
268.913	267.19
269.145	288.19
269.377	284.19
269.609	286.19
269.841	281.19
270.073	271.19
270.306	279.19
270.538	316.19
270.77	303.19
271.002	316.19
271.234	289.19
271.466	296.19
271.698	301.19
271.93	317.19
272.162	313.19
272.394	311.19
272.626	298.19
272.858	310.19
273.09	315.19
273.322	279.19
273.553	295.19
273.785	290.19
274.017	287.19
274.249	298.19
274.481	308.19
274.713	284.19
274.945	301.19
275.176	304.19
275.408	291.19
275.64	288.19
275.872	267.19
276.104	292.19
276.335	292.19
276.567	304.19
276.799	294.19
277.031	312.19
277.262	337.19
277.494	333.19
277.726	312.19
277.957	317.19
278.189	290.19
278.421	295.19
278.652	300.19
278.884	287.19
279.115	307.19
279.347	292.19
279.579	291.19
279.81	303.19
280.042	308.19
280.273	312.19
280.505	309.19
280.736	327.19
280.968	298.19
281.199	315.19
281.431	324.19
281.662	302.19
281.894	315.19
282.125	313.19
282.356	310.19
282.588	336.19
282.819	331.19
283.051	343.19
283.282	329.19
283.513	334.19
283.745	333.19
283.976	337.19
284.207	316.19
284.439	339.19
284.67	326.19
284.901	332.19
285.132	321.19
285.364	315.19
285.595	321.19
285.826	340.19
286.057	348.19
286.288	317.19
286.52	357.19
286.751	344.19
286.982	320.19
287.213	358.19
287.444	341.19
287.675	342.19
287.906	346.19
288.138	335.19
288.369	358.19
288.6	358.19
288.831	333.19
289.062	342.19
289.293	337.19
289.524	335.19
289.755	340.19
289.986	352.19
290.217	331.19
290.448	334.19
290.679	359.19
290.91	346.19
291.141	361.19
291.371	365.19
291.602	361.19
291.833	371.19
292.064	342.19
292.295	345.19
292.526	333.19
292.757	345.19
292.987	358.19
293.218	352.19
293.449	339.19
293.68	344.19
293.91	348.19
294.141	351.19
294.372	367.19
294.603	345.19
294.833	360.19
295.064	344.19
295.295	355.19
295.525	351.19
295.756	365.19
295.987	357.19
296.217	375.19
296.448	393.19
296.679	365.19
296.909	367.19
297.14	374.19
297.37	371.19
297.601	386.19
297.831	385.19
298.062	373.19
298.292	385.19
298.523	376.19
298.753	373.19
298.984	387.19
299.214	375.19
299.445	369.19
299.675	375.19
299.905	371.19
300.136	374.19
300.366	397.19
300.597	388.19
300.827	408.19
301.057	393.19
301.288	389.19
301.518	392.19
301.748	409.19
301.979	400.19
302.209	411.19
302.439	405.19
302.669	397.19
302.9	408.19
303.13	397.19
303.36	402.19
303.59	405.19
303.82	425.19
304.051	413.19
304.281	390.19
304.511	404.19
304.741	392.19
304.971	401.19
305.201	389.19
305.431	411.19
305.661	374.19
305.891	396.19
306.121	410.19
306.352	424.19
306.582	387.19
306.812	381.19
307.042	401.19
307.272	391.19
307.502	379.19
307.731	405.19
307.961	401.19
308.191	400.19
308.421	407.19
308.651	415.19
308.881	391.19
309.111	404.19
309.341	385.19
309.571	398.19
309.8	407.19
310.03	420.19
310.26	419.19
310.49	423.19
310.72	419.19
310.949	450.19
311.179	446.19
311.409	418.19
311.639	401.19
311.868	419.19
312.098	424.19
312.328	423.19
312.557	432.19
312.787	436.19
313.017	431.19
313.246	435.19
313.476	437.19
313.706	429.19
313.935	450.19
314.165	458.19
314.394	453.19
314.624	455.19
314.853	461.19
315.083	459.19
315.312	417.19
315.542	447.19
315.771	431.19
316.001	437.19
316.23	451.19
316.46	429.19
316.689	418.19
316.919	439.19
317.148	445.19
317.377	458.19
317.607	448.19
317.836	439.19
318.065	439.19
318.295	453.19
318.524	443.19
318.753	415.19
318.983	449.19
319.212	446.19
319.441	450.19
319.67	425.19
319.9	423.19
320.129	440.19
320.358	461.19
320.587	447.19
320.816	445.19
321.046	436.19
321.275	453.19
321.504	461.19
321.733	458.19
321.962	443.19
322.191	466.19
322.42	456.19
322.649	457.19
322.878	468.19
323.108	481.19
323.337	482.19
323.566	500.19
323.795	519.19
324.024	548.19
324.253	589.19
324.482	709.19
324.71	999.19
324.939	1361.19
325.168	1218.19
325.397	695.19
325.626	557.19
325.855	519.19
326.084	499.19
326.313	503.19
326.542	494.19
326.77	529.19
326.999	588.19
327.228	716.19
327.457	940.19
327.686	1115.19
327.914	799.19
328.143	606.19
328.372	567.19
328.6	528.19
328.829	541.19
329.058	528.19
329.287	567.19
329.515	559.19
329.744	544.19
329.972	534.19
330.201	547.19
330.43	547.19
330.658	570.19
330.887	560.19
331.115	598.19
331.344	559.19
331.572	532.19
331.801	539.19
332.03	557.19
332.258	537.19
332.486	543.19
332.715	541.19
332.943	548.19
333.172	588.19
333.4	603.19
333.629	601.19
333.857	625.19
334.085	634.19
334.314	619.19
334.542	637.19
334.771	649.19
334.999	598.19
335.227	611.19
335.455	576.19
335.684	573.19
335.912	566.19
336.14	563.19
336.369	538.19
336.597	565.19
336.825	563.19
337.053	548.19
337.281	559.19
337.51	525.19
337.738	509.19
337.966	540.19
338.194	521.19
338.422	521.19
338.65	524.19
338.878	543.19
339.106	507.19
339.334	535.19
339.562	512.19
339.79	507.19
340.018	526.19
340.246	503.19
340.474	517.19
340.702	505.19
340.93	495.19
341.158	516.19
341.386	488.19
341.614	511.19
341.842	502.19
342.07	511.19
342.298	502.19
342.526	538.19
342.754	502.19
342.981	510.19
343.209	487.19
343.437	543.19
343.665	552.19
343.893	577.19
344.12	589.19
344.348	577.19
344.576	540.19
344.804	541.19
345.031	525.19
345.259	523.19
345.487	533.19
345.714	524.19
345.942	486.19
346.17	488.19
346.397	500.19
346.625	483.19
346.853	494.19
347.08	488.19
347.308	486.19
347.535	493.19
347.763	481.19
347.99	489.19
348.218	485.19
348.445	503.19
348.673	485.19
348.9	493.19
349.128	473.19
349.355	479.19
349.583	502.19
349.81	485.19
350.037	485.19
350.265	473.19
350.492	471.19
350.72	478.19
350.947	485.19
351.174	507.19
351.402	459.19
351.629	477.19
351.856	494.19
352.083	504.19
352.311	477.19
352.538	472.19
352.765	489.19
352.992	478.19
353.22	488.19
353.447	479.19
353.674	494.19
353.901	453.19
354.128	460.19
354.355	465.19
354.583	471.19
354.81	465.19
355.037	480.19
355.264	457.19
355.491	453.19
355.718	454.19
355.945	468.19
356.172	472.19
356.399	483.19
356.626	457.19
356.853	477.19
357.08	464.19
357.307	471.19
357.534	481.19
357.761	475.19
357.988	471.19
358.215	467.19
358.441	486.19
358.668	466.19
358.895	458.19
359.122	473.19
359.349	478.19
359.576	480.19
359.802	472.19
360.029	508.19
360.256	503.19
360.483	502.19
360.709	485.19
360.936	496.19
361.163	502.19
361.39	471.19
361.616	486.19
361.843	481.19
362.07	480.19
362.296	494.19
362.523	477.19
362.749	487.19
362.976	475.19
363.203	486.19
363.429	458.19
363.656	469.19
363.882	462.19
364.109	481.19
364.335	464.19
364.562	505.19
364.788	485.19
365.015	466.19
365.241	475.19
365.468	493.19
365.694	487.19
365.92	454.19
366.147	472.19
366.373	476.19
366.599	476.19
366.826	480.19
367.052	448.19
367.278	477.19
367.505	476.19
367.731	475.19
367.957	463.19
368.184	487.19
368.41	470.19
368.636	483.19
368.862	495.19
369.089	489.19
369.315	491.19
369.541	487.19
369.767	481.19
369.993	460.19
370.219	480.19
370.445	473.19
370.672	491.19
370.898	497.19
371.124	493.19
371.35	501.19
371.576	487.19
371.802	497.19
372.028	473.19
372.254	471.19
372.48	500.19
372.706	517.19
372.932	514.19
373.158	523.19
373.384	522.19
373.61	505.19
373.835	487.19
374.061	504.19
374.287	504.19
374.513	517.19
374.739	524.19
374.965	528.19
375.191	553.19
375.416	533.19
375.642	552.19
375.868	545.19
376.094	507.19
376.319	519.19
376.545	511.19
376.771	504.19
376.997	497.19
377.222	495.19
377.448	518.19
377.674	481.19
377.899	483.19
378.125	489.19
378.35	495.19
378.576	480.19
378.802	465.19
379.027	506.19
379.253	490.19
379.478	505.19
379.704	504.19
379.929	519.19
380.155	508.19
380.38	503.19
380.606	508.19
380.831	489.19
381.057	505.19
381.282	488.19
381.507	517.19
381.733	491.19
381.958	515.19
382.184	507.19
382.409	526.19
382.634	507.19
382.86	525.19
383.085	532.19
383.31	534.19
383.535	556.19
383.761	528.19
383.986	549.19
384.211	560.19
384.436	545.19
384.662	561.19
384.887	549.19
385.112	552.19
385.337	589.19
385.562	569.19
385.787	570.19
386.013	590.19
386.238	594.19
386.463	571.19
386.688	598.19
386.913	576.19
387.138	597.19
387.363	588.19
387.588	581.19
387.813	565.19
388.038	575.19
388.263	586.19
388.488	584.19
388.713	591.19
388.938	572.19
389.163	556.19
389.387	578.19
389.612	549.19
389.837	547.19
390.062	557.19
390.287	567.19
390.512	571.19
390.736	568.19
390.961	591.19
391.186	570.19
391.411	588.19
391.636	598.19
391.86	630.19
392.085	635.19
392.31	619.19
392.534	622.19
392.759	601.19
392.984	608.19
393.208	602.19
393.433	613.19
393.658	616.19
393.882	595.19
394.107	582.19
394.331	593.19
394.556	599.19
394.78	587.19
395.005	618.19
395.229	589.19
395.454	641.19
395.678	638.19
395.903	628.19
396.127	660.19
396.352	633.19
396.576	629.19
396.801	610.19
397.025	591.19
397.249	624.19
397.474	629.19
397.698	625.19
397.922	621.19
398.147	654.19
398.371	657.19
398.595	663.19
398.82	669.19
399.044	718.19
399.268	758.19
399.492	869.19
399.717	905.19
399.941	943.19
400.165	865.19
400.389	835.19
400.613	795.19
400.837	757.19
401.062	709.19
401.286	696.19
401.51	707.19
401.734	699.19
401.958	694.19
402.182	676.19
402.406	703.19
402.63	724.19
402.854	711.19
403.078	745.19
403.302	735.19
403.526	762.19
403.75	729.19
403.974	751.19
404.198	754.19
404.422	759.19
404.645	768.19
404.869	773.19
405.093	781.19
405.317	790.19
405.541	802.19
405.765	791.19
405.988	750.19
406.212	761.19
406.436	769.19
406.66	786.19
406.883	748.19
407.107	791.19
407.331	857.19
407.555	909.19
407.778	899.19
408.002	827.19
408.226	811.19
408.449	790.19
408.673	775.19
408.896	785.19
409.12	823.19
409.344	807.19
409.567	726.19
409.791	703.19
410.014	740.19
410.238	720.19
410.461	717.19
410.685	724.19
410.908	709.19
411.132	742.19
411.355	758.19
411.578	744.19
411.802	703.19
412.025	678.19
412.249	712.19
412.472	733.19
412.695	749.19
412.919	746.19
413.142	701.19
413.365	709.19
413.589	692.19
413.812	703.19
414.035	668.19
414.258	686.19
414.482	682.19
414.705	662.19
414.928	672.19
415.151	682.19
415.374	661.19
415.597	672.19
415.821	652.19
416.044	674.19
416.267	683.19
416.49	659.19
416.713	649.19
416.936	653.19
417.159	695.19
417.382	665.19
417.605	671.19
417.828	688.19
418.051	716.19
418.274	670.19
418.497	686.19
418.72	701.19
418.943	687.19
419.166	693.19
419.389	766.19
419.611	729.19
419.834	731.19
420.057	715.19
420.28	687.19
420.503	712.19
420.726	677.19
420.948	700.19
421.171	712.19
421.394	740.19
421.617	689.19
421.839	680.19
422.062	687.19
422.285	687.19
422.507	752.19
422.73	814.19
422.953	773.19
423.175	715.19
423.398	712.19
423.621	694.19
423.843	726.19
424.066	752.19
424.288	727.19
424.511	756.19
424.733	751.19
424.956	837.19
425.178	783.19
425.401	799.19
425.623	816.19
425.846	720.19
426.068	684.19
426.291	681.19
426.513	675.19
426.735	680.19
426.958	705.19
427.18	740.19
427.402	843.19
427.625	893.19
427.847	791.19
428.069	749.19
428.292	691.19
428.514	657.19
428.736	663.19
428.958	637.19
429.181	620.19
429.403	640.19
429.625	649.19
429.847	646.19
430.069	708.19
430.292	711.19
430.514	647.19
430.736	632.19
430.958	639.19
431.18	632.19
431.402	627.19
431.624	625.19
431.846	639.19
432.068	597.19
432.29	643.19
432.512	616.19
432.734	629.19
432.956	619.19
433.178	645.19
433.4	639.19
433.622	622.19
433.844	616.19
434.066	622.19
434.287	648.19
434.509	643.19
434.731	651.19
434.953	680.19
435.175	671.19
435.397	718.19
435.618	695.19
435.84	694.19
436.062	751.19
436.284	803.19
436.505	702.19
436.727	669.19
436.949	638.19
437.17	641.19
437.392	627.19
437.614	647.19
437.835	646.19
438.057	710.19
438.278	785.19
438.5	783.19
438.721	827.19
438.943	808.19
439.165	713.19
439.386	668.19
439.608	669.19
439.829	657.19
440.05	672.19
440.272	691.19
440.493	688.19
440.715	678.19
440.936	657.19
441.158	644.19
441.379	662.19
441.6	692.19
441.822	683.19
442.043	711.19
442.264	783.19
442.486	793.19
442.707	735.19
442.928	685.19
443.149	702.19
443.371	738.19
443.592	747.19
443.813	784.19
444.034	870.19
444.255	763.19
444.476	748.19
444.698	803.19
444.919	777.19
445.14	885.19
445.361	789.19
445.582	731.19
445.803	756.19
446.024	812.19
446.245	789.19
446.466	768.19
446.687	694.19
446.908	685.19
447.129	669.19
447.35	633.19
447.571	615.19
447.792	612.19
448.013	631.19
448.234	622.19
448.455	637.19
448.675	699.19
448.896	814.19
449.117	715.19
449.338	703.19
449.559	747.19
449.779	817.19
450	707.19
450.221	625.19
450.442	614.19
450.662	589.19
450.883	586.19
451.104	599.19
451.324	596.19
451.545	596.19
451.766	574.19
451.986	575.19
452.207	578.19
452.428	564.19
452.648	568.19
452.869	569.19
453.089	557.19
453.31	569.19
453.53	574.19
453.751	572.19
453.971	556.19
454.192	561.19
454.412	579.19
454.633	561.19
454.853	555.19
455.073	564.19
455.294	571.19
455.514	605.19
455.734	622.19
455.955	565.19
456.175	560.19
456.395	538.19
456.616	524.19
456.836	530.19
457.056	534.19
457.276	527.19
457.497	556.19
457.717	547.19
457.937	551.19
458.157	563.19
458.377	573.19
458.598	574.19
458.818	615.19
459.038	676.19
459.258	706.19
459.478	651.19
459.698	643.19
459.918	664.19
460.138	629.19
460.358	679.19
460.578	683.19
460.798	707.19
461.018	696.19
461.238	701.19
461.458	670.19
461.678	670.19
461.898	706.19
462.118	703.19
462.338	704.19
462.558	728.19
462.777	743.19
462.997	793.19
463.217	816.19
463.437	848.19
463.657	801.19
463.876	771.19
464.096	798.19
464.316	767.19
464.536	786.19
464.755	749.19
464.975	723.19
465.195	716.19
465.414	745.19
465.634	695.19
465.854	660.19
466.073	639.19
466.293	621.19
466.512	612.19
466.732	623.19
466.951	618.19
467.171	607.19
467.391	596.19
467.61	590.19
467.829	616.19
468.049	600.19
468.268	609.19
468.488	579.19
468.707	565.19
468.927	583.19
469.146	576.19
469.365	599.19
469.585	596.19
469.804	614.19
470.023	610.19
470.243	614.19
470.462	627.19
470.681	632.19
470.901	611.19
471.12	604.19
471.339	595.19
471.558	607.19
471.777	598.19
471.997	585.19
472.216	601.19
472.435	621.19
472.654	592.19
472.873	597.19
473.092	596.19
473.311	594.19
473.53	578.19
473.749	593.19
473.968	617.19
474.187	666.19
474.406	651.19
474.625	628.19
474.844	607.19
475.063	603.19
475.282	605.19
475.501	591.19
475.72	601.19
475.939	604.19
476.158	615.19
476.377	606.19
476.596	596.19
476.814	620.19
477.033	628.19
477.252	655.19
477.471	651.19
477.69	651.19
477.908	654.19
478.127	671.19
478.346	700.19
478.564	698.19
478.783	698.19
479.002	748.19
479.22	731.19
479.439	710.19
479.658	716.19
479.876	715.19
480.095	714.19
480.313	766.19
480.532	781.19
480.751	788.19
480.969	784.19
481.188	784.19
481.406	802.19
481.624	748.19
481.843	711.19
482.061	679.19
482.28	688.19
482.498	688.19
482.717	702.19
482.935	676.19
483.153	682.19
483.372	669.19
483.59	664.19
483.808	705.19
484.027	675.19
484.245	707.19
484.463	675.19
484.681	712.19
484.9	727.19
485.118	709.19
485.336	709.19
485.554	713.19
485.772	720.19
485.99	752.19
486.209	737.19
486.427	697.19
486.645	739.19
486.863	741.19
487.081	720.19
487.299	712.19
487.517	741.19
487.735	733.19
487.953	733.19
488.171	726.19
488.389	738.19
488.607	721.19
488.825	725.19
489.043	731.19
489.261	728.19
489.479	716.19
489.696	727.19
489.914	766.19
490.132	748.19
490.35	745.19
490.568	739.19
490.786	766.19
491.003	785.19
491.221	773.19
491.439	811.19
491.657	816.19
491.874	771.19
492.092	757.19
492.31	805.19
492.527	803.19
492.745	812.19
492.963	826.19
493.18	836.19
493.398	815.19
493.615	833.19
493.833	829.19
494.05	824.19
494.268	833.19
494.485	846.19
494.703	859.19
494.92	841.19
495.138	816.19
495.355	829.19
495.573	865.19
495.79	856.19
496.008	852.19
496.225	860.19
496.442	856.19
496.66	871.19
496.877	873.19
497.094	860.19
497.312	890.19
497.529	879.19
497.746	921.19
497.963	941.19
498.181	962.19
498.398	988.19
498.615	1024.19
498.832	1060.19
499.049	1141.19
499.267	1193.19
499.484	1248.19
499.701	1343.19
499.918	1424.19
500.135	1557.19
500.352	1686.19
500.569	1758.19
500.786	1717.19
501.003	1703.19
501.22	1573.19
501.437	1438.19
501.654	1343.19
501.871	1271.19
502.088	1223.19
502.305	1139.19
502.522	1103.19
502.739	1063.19
502.956	1022.19
503.172	944.19
503.389	956.19
503.606	937.19
503.823	915.19
504.04	911.19
504.256	932.19
504.473	907.19
504.69	928.19
504.907	921.19
505.123	914.19
505.34	873.19
505.557	833.19
505.773	811.19
505.99	814.19
506.207	788.19
506.423	807.19
506.64	796.19
506.856	757.19
507.073	753.19
507.289	765.19
507.506	773.19
507.722	762.19
507.939	796.19
508.155	755.19
508.372	750.19
508.588	761.19
508.805	717.19
509.021	742.19
509.238	785.19
509.454	737.19
509.67	731.19
509.887	713.19
510.103	724.19
510.319	734.19
510.536	756.19
510.752	1015.19
510.968	907.19
511.184	716.19
511.401	708.19
511.617	720.19
511.833	707.19
512.049	695.19
512.265	716.19
512.481	699.19
512.698	704.19
512.914	695.19
513.13	678.19
513.346	667.19
513.562	689.19
513.778	697.19
513.994	701.19
514.21	699.19
514.426	718.19
514.642	721.19
514.858	735.19
515.074	775.19
515.29	822.19
515.506	1031.19
515.721	957.19
515.937	784.19
516.153	764.19
516.369	755.19
516.585	759.19
516.801	791.19
517.016	807.19
517.232	796.19
517.448	824.19
517.664	867.19
517.879	881.19
518.095	853.19
518.311	863.19
518.527	833.19
518.742	795.19
518.958	777.19
519.173	781.19
519.389	761.19
519.605	747.19
519.82	728.19
520.036	757.19
520.251	737.19
520.467	719.19
520.682	714.19
520.898	718.19
521.113	713.19
521.329	736.19
521.544	773.19
521.76	819.19
521.975	1177.19
522.19	1222.19
522.406	823.19
522.621	703.19
522.836	691.19
523.052	646.19
523.267	645.19
523.482	629.19
523.698	647.19
523.913	636.19
524.128	644.19
524.343	637.19
524.559	607.19
524.774	621.19
524.989	629.19
525.204	647.19
525.419	631.19
525.634	615.19
525.849	615.19
526.064	596.19
526.28	604.19
526.495	633.19
526.71	633.19
526.925	601.19
527.14	606.19
527.355	598.19
527.57	600.19
527.785	593.19
527.999	606.19
528.214	609.19
528.429	608.19
528.644	622.19
528.859	586.19
529.074	609.19
529.289	607.19
529.503	630.19
529.718	613.19
529.933	612.19
530.148	590.19
530.363	624.19
530.577	583.19
530.792	571.19
531.007	587.19
531.221	595.19
531.436	597.19
531.651	587.19
531.865	600.19
532.08	590.19
532.295	571.19
532.509	605.19
532.724	569.19
532.938	603.19
533.153	581.19
533.367	588.19
533.582	592.19
533.796	608.19
534.011	601.19
534.225	577.19
534.44	573.19
534.654	575.19
534.868	572.19
535.083	586.19
535.297	576.19
535.511	565.19
535.726	591.19
535.94	592.19
536.154	599.19
536.369	558.19
536.583	572.19
536.797	589.19
537.011	551.19
537.225	561.19
537.44	567.19
537.654	573.19
537.868	528.19
538.082	533.19
538.296	555.19
538.51	537.19
538.724	565.19
538.938	563.19
539.153	560.19
539.367	563.19
539.581	537.19
539.795	566.19
540.009	543.19
540.222	543.19
540.436	564.19
540.65	551.19
540.864	553.19
541.078	546.19
541.292	538.19
541.506	544.19
541.72	567.19
541.934	526.19
542.147	540.19
542.361	544.19
542.575	544.19
542.789	559.19
543.002	555.19
543.216	553.19
543.43	566.19
543.644	558.19
543.857	551.19
544.071	530.19
544.285	551.19
544.498	559.19
544.712	569.19
544.925	536.19
545.139	569.19
545.352	552.19
545.566	545.19
545.779	543.19
545.993	578.19
546.206	565.19
546.42	548.19
546.633	550.19
546.847	536.19
547.06	550.19
547.274	519.19
547.487	543.19
547.7	561.19
547.914	563.19
548.127	552.19
548.34	579.19
548.554	567.19
548.767	566.19
548.98	554.19
549.193	541.19
549.407	559.19
549.62	591.19
549.833	554.19
550.046	564.19
550.259	552.19
550.473	543.19
550.686	548.19
550.899	557.19
551.112	548.19
551.325	552.19
551.538	545.19
551.751	543.19
551.964	551.19
552.177	575.19
552.39	561.19
552.603	593.19
552.816	580.19
553.029	575.19
553.242	594.19
553.455	581.19
553.667	586.19
553.88	599.19
554.093	578.19
554.306	577.19
554.519	563.19
554.732	563.19
554.944	542.19
555.157	514.19
555.37	541.19
555.583	538.19
555.795	544.19
556.008	522.19
556.221	512.19
556.433	515.19
556.646	496.19
556.859	493.19
557.071	498.19
557.284	497.19
557.496	483.19
557.709	497.19
557.921	480.19
558.134	492.19
558.346	483.19
558.559	478.19
558.771	476.19
558.984	472.19
559.196	477.19
559.409	479.19
559.621	492.19
559.833	485.19
560.046	494.19
560.258	476.19
560.47	507.19
560.683	487.19
560.895	469.19
561.107	482.19
561.32	484.19
561.532	500.19
561.744	478.19
561.956	499.19
562.168	484.19
562.381	477.19
562.593	476.19
562.805	490.19
563.017	507.19
563.229	503.19
563.441	481.19
563.653	482.19
563.865	504.19
564.077	501.19
564.289	470.19
564.501	505.19
564.713	519.19
564.925	497.19
565.137	540.19
565.349	556.19
565.561	557.19
565.773	573.19
565.985	567.19
566.197	600.19
566.408	651.19
566.62	703.19
566.832	702.19
567.044	743.19
567.255	728.19
567.467	743.19
567.679	764.19
567.891	777.19
568.102	819.19
568.314	774.19
568.526	718.19
568.737	674.19
568.949	635.19
569.161	612.19
569.372	591.19
569.584	563.19
569.795	530.19
570.007	524.19
570.218	542.19
570.43	511.19
570.641	519.19
570.853	493.19
571.064	531.19
571.276	494.19
571.487	515.19
571.698	483.19
571.91	467.19
572.121	471.19
572.333	449.19
572.544	445.19
572.755	439.19
572.966	429.19
573.178	433.19
573.389	447.19
573.6	432.19
573.811	437.19
574.023	433.19
574.234	423.19
574.445	441.19
574.656	423.19
574.867	405.19
575.078	431.19
575.289	409.19
575.501	409.19
575.712	397.19
575.923	411.19
576.134	410.19
576.345	412.19
576.556	412.19
576.767	412.19
576.978	402.19
577.188	403.19
577.399	398.19
577.61	389.19
577.821	395.19
578.032	384.19
578.243	415.19
578.454	511.19
578.665	447.19
578.875	398.19
579.086	397.19
579.297	371.19
579.508	382.19
579.718	390.19
579.929	389.19
580.14	364.19
580.35	385.19
580.561	393.19
580.772	377.19
580.982	363.19
581.193	381.19
581.403	375.19
581.614	376.19
581.825	382.19
582.035	364.19
582.246	381.19
582.456	370.19
582.667	377.19
582.877	370.19
583.087	383.19
583.298	375.19
583.508	384.19
583.719	355.19
583.929	389.19
584.139	376.19
584.35	370.19
584.56	361.19
584.77	395.19
584.981	368.19
585.191	383.19
585.401	372.19
585.611	381.19
585.821	364.19
586.032	379.19
586.242	377.19
586.452	366.19
586.662	363.19
586.872	377.19
587.082	372.19
587.292	371.19
587.502	361.19
587.713	352.19
587.923	368.19
588.133	375.19
588.343	358.19
588.553	363.19
588.762	363.19
588.972	359.19
589.182	377.19
589.392	389.19
589.602	347.19
589.812	370.19
590.022	370.19
590.232	361.19
590.441	356.19
590.651	366.19
590.861	360.19
591.071	389.19
591.281	391.19
591.49	374.19
591.7	385.19
591.91	376.19
592.119	388.19
592.329	403.19
592.539	415.19
592.748	407.19
592.958	439.19
593.167	425.19
593.377	437.19
593.587	443.19
593.796	433.19
594.006	443.19
594.215	439.19
594.424	439.19
594.634	423.19
594.843	428.19
595.053	419.19
595.262	424.19
595.472	396.19
595.681	394.19
595.89	382.19
596.1	368.19
596.309	352.19
596.518	362.19
596.727	363.19
596.937	365.19
597.146	341.19
597.355	346.19
597.564	336.19
597.774	351.19
597.983	334.19
598.192	327.19
598.401	347.19
598.61	321.19
598.819	335.19
599.028	334.19
599.237	317.19
599.446	317.19
599.655	312.19
599.864	316.19
600.073	321.19
600.282	324.19
600.491	312.19
600.7	323.19
600.909	328.19
601.118	316.19
601.327	312.19
601.536	313.19
601.745	326.19
601.953	322.19
602.162	302.19
602.371	307.19
602.58	294.19
602.789	317.19
602.997	299.19
603.206	319.19
603.415	319.19
603.623	299.19
603.832	335.19
604.041	323.19
604.249	317.19
604.458	302.19
604.666	288.19
604.875	305.19
605.084	299.19
605.292	287.19
605.501	301.19
605.709	299.19
605.918	287.19
606.126	298.19
606.334	302.19
606.543	315.19
606.751	324.19
606.96	303.19
607.168	296.19
607.376	284.19
607.585	294.19
607.793	293.19
608.001	278.19
608.21	292.19
608.418	315.19
608.626	307.19
608.834	311.19
609.043	288.19
609.251	289.19
609.459	276.19
609.667	302.19
609.875	303.19
610.083	289.19
610.291	283.19
610.499	295.19
610.707	292.19
610.916	301.19
611.124	300.19
611.332	289.19
611.54	308.19
611.748	309.19
611.955	297.19
612.163	283.19
612.371	279.19
612.579	285.19
612.787	297.19
612.995	298.19
613.203	289.19
613.411	278.19
613.618	289.19
613.826	276.19
614.034	297.19
614.242	279.19
614.449	287.19
614.657	277.19
614.865	267.19
615.072	281.19
615.28	267.19
615.488	288.19
615.695	296.19
615.903	272.19
616.111	290.19
616.318	284.19
616.526	292.19
616.733	287.19
616.941	297.19
617.148	294.19
617.356	283.19
617.563	298.19
617.771	295.19
617.978	275.19
618.185	273.19
618.393	298.19
618.6	289.19
618.807	284.19
619.015	283.19
619.222	277.19
619.429	297.19
619.637	293.19
619.844	278.19
620.051	272.19
620.258	291.19
620.466	272.19
620.673	256.19
620.88	254.19
621.087	263.19
621.294	264.19
621.501	277.19
621.708	267.19
621.915	260.19
622.122	269.19
622.329	272.19
622.536	295.19
622.743	275.19
622.95	251.19
623.157	269.19
623.364	255.19
623.571	253.19
623.778	269.19
623.985	265.19
624.192	261.19
624.399	285.19
624.606	277.19
624.812	239.19
625.019	254.19
625.226	253.19
625.433	269.19
625.639	245.19
625.846	225.19
626.053	249.19
626.259	247.19
626.466	245.19
626.673	254.19
626.879	247.19
627.086	267.19
627.293	256.19
627.499	248.19
627.706	255.19
627.912	233.19
628.119	231.19
628.325	259.19
628.532	229.19
628.738	237.19
628.945	244.19
629.151	242.19
629.357	250.19
629.564	243.19
629.77	231.19
629.976	233.19
630.183	238.19
630.389	228.19
630.595	237.19
630.802	217.19
631.008	232.19
631.214	219.19
631.42	242.19
631.627	234.19
631.833	237.19
632.039	222.19
632.245	225.19
632.451	220.19
632.657	232.19
632.863	215.19
633.069	204.19
633.275	203.19
633.481	228.19
633.688	223.19
633.893	243.19
634.099	229.19
634.305	212.19
634.511	214.19
634.717	237.19
634.923	221.19
635.129	199.19
635.335	215.19
635.541	213.19
635.747	218.19
635.952	202.19
636.158	203.19
636.364	235.19
636.57	208.19
636.775	218.19
636.981	228.19
637.187	226.19
637.392	215.19
637.598	220.19
637.804	211.19
638.009	215.19
638.215	207.19
638.421	209.19
638.626	217.19
638.832	222.19
639.037	205.19
639.243	202.19
639.448	223.19
639.654	204.19
639.859	205.19
640.065	214.19
640.27	222.19
640.475	212.19
640.681	205.19
640.886	202.19
641.091	199.19
641.297	205.19
641.502	196.19
641.707	196.19
641.913	208.19
642.118	192.19
642.323	192.19
642.528	195.19
642.733	212.19
642.939	214.19
643.144	179.19
643.349	200.19
643.554	212.19
643.759	201.19
643.964	199.19
644.169	213.19
644.374	181.19
644.579	196.19
644.784	195.19
644.989	196.19
645.194	193.19
645.399	199.19
645.604	172.19
645.809	199.19
646.014	187.19
646.219	197.19
646.423	183.19
646.628	190.19
646.833	197.19
647.038	198.19
647.243	188.19
647.447	192.19
647.652	201.19
647.857	189.19
648.062	214.19
648.266	211.19
648.471	194.19
648.676	208.19
648.88	217.19
649.085	198.19
649.289	200.19
649.494	185.19
649.698	201.19
649.903	203.19
650.107	195.19
650.312	189.19
650.516	202.19
650.721	182.19
650.925	178.19
651.13	185.19
651.334	173.19
651.539	177.19
651.743	169.19
651.947	180.19
652.152	164.19
652.356	168.19
652.56	174.19
652.764	168.19
652.969	175.19
653.173	175.19
653.377	180.19
653.581	159.19
653.785	151.19
653.99	168.19
654.194	165.19
654.398	139.19
654.602	151.19
654.806	146.19
655.01	161.19
655.214	151.19
655.418	168.19
655.622	155.19
655.826	140.19
656.03	158.19
656.234	170.19
656.438	159.19
656.642	158.19
656.846	158.19
657.049	147.19
657.253	142.19
657.457	139.19
657.661	136.19
657.865	101.19
658.068	122.19
658.272	135.19
658.476	119.19
658.68	121.19
658.883	121.19
659.087	117.19
659.291	119.19
659.494	125.19
659.698	93.19
659.901	96.19
660.105	100.19
660.309	90.19
660.512	103.19
660.716	100.19
660.919	104.19
661.123	108.19
661.326	98.19
661.53	91.19
661.733	100.19
661.936	101.19
662.14	88.19
662.343	95.19
662.546	99.19
662.75	81.19
662.953	97.19
663.156	96.19
663.36	74.19
663.563	89.19
663.766	88.19
663.969	84.19
664.173	100.19
664.376	91.19
664.579	99.19
664.782	82.19
664.985	90.19
665.188	71.19
665.391	77.19
665.594	82.19
665.797	77.19
666	95.19
666.203	83.19
666.406	86.19
666.609	83.19
666.812	78.19
667.015	88.19
667.218	75.19
667.421	77.19
667.624	89.19
667.827	84.19
668.03	90.19
668.232	85.19
668.435	87.19
668.638	91.19
668.841	96.19
669.043	84.19
669.246	87.19
669.449	85.19
669.651	80.19
669.854	86.19
670.057	86.19
670.259	88.19
670.462	80.19
670.665	90.19
670.867	79.19
671.07	89.19
671.272	87.19
671.475	70.19
671.677	97.19
671.88	85.19
672.082	86.19
672.284	81.19
672.487	94.19
672.689	94.19
672.892	90.19
