Data from 1964.PennyLincolnUp.Lamp.En5.5.200Scan.071719.P1._HRD10591_14-05-10-909.txt Node
Date: Thu Jul 18 14:05:10 EDT 2019
User: cochatt
Spectrometer: HR+D1059
Trigger mode: 1
Integration Time (sec): 1.000000E-1
Scans to average: 1
Electric dark correction enabled: true
Nonlinearity correction enabled: false
Boxcar width: 0
XAxis mode: Wavelengths
Number of Pixels in Spectrum: 2048
>>>>>Begin Spectral Data<<<<<
223.165	-14.88
223.4	-14.88
223.635	-14.88
223.869	-18.88
224.104	-12.88
224.338	-20.88
224.573	-8.88
224.808	-19.88
225.042	-0.88
225.277	-12.88
225.511	-2.88
225.746	-3.88
225.98	4.12
226.215	17.12
226.449	23.12
226.683	12.12
226.918	31.12
227.152	29.12
227.387	8.12
227.621	34.12
227.856	35.12
228.09	45.12
228.324	43.12
228.559	54.12
228.793	61.12
229.027	97.12
229.262	99.12
229.496	117.12
229.73	105.12
229.964	146.12
230.199	107.12
230.433	109.12
230.667	106.12
230.901	100.12
231.136	113.12
231.37	106.12
231.604	92.12
231.838	129.12
232.072	98.12
232.306	123.12
232.541	106.12
232.775	106.12
233.009	108.12
233.243	94.12
233.477	109.12
233.711	114.12
233.945	101.12
234.179	113.12
234.413	101.12
234.647	89.12
234.881	121.12
235.115	106.12
235.349	96.12
235.583	119.12
235.817	114.12
236.051	109.12
236.285	116.12
236.519	126.12
236.753	132.12
236.987	138.12
237.221	154.12
237.455	178.12
237.689	164.12
237.922	130.12
238.156	121.12
238.39	122.12
238.624	123.12
238.858	130.12
239.091	128.12
239.325	123.12
239.559	123.12
239.793	124.12
240.027	119.12
240.26	143.12
240.494	137.12
240.728	141.12
240.961	144.12
241.195	132.12
241.429	123.12
241.662	121.12
241.896	124.12
242.13	132.12
242.363	120.12
242.597	126.12
242.83	138.12
243.064	127.12
243.298	124.12
243.531	136.12
243.765	138.12
243.998	150.12
244.232	134.12
244.465	133.12
244.699	137.12
244.932	126.12
245.166	132.12
245.399	137.12
245.633	140.12
245.866	147.12
246.099	141.12
246.333	142.12
246.566	153.12
246.8	131.12
247.033	156.12
247.266	155.12
247.5	162.12
247.733	182.12
247.966	176.12
248.2	163.12
248.433	162.12
248.666	179.12
248.899	184.12
249.133	192.12
249.366	181.12
249.599	189.12
249.832	178.12
250.066	182.12
250.299	169.12
250.532	176.12
250.765	188.12
250.998	202.12
251.231	220.12
251.465	195.12
251.698	190.12
251.931	186.12
252.164	193.12
252.397	206.12
252.63	201.12
252.863	210.12
253.096	214.12
253.329	220.12
253.562	201.12
253.795	204.12
254.028	200.12
254.261	203.12
254.494	226.12
254.727	236.12
254.96	252.12
255.193	252.12
255.426	236.12
255.659	226.12
255.892	221.12
256.124	216.12
256.357	238.12
256.59	225.12
256.823	211.12
257.056	244.12
257.289	215.12
257.521	201.12
257.754	209.12
257.987	225.12
258.22	189.12
258.452	209.12
258.685	203.12
258.918	202.12
259.151	213.12
259.383	219.12
259.616	234.12
259.849	242.12
260.081	249.12
260.314	236.12
260.547	261.12
260.779	242.12
261.012	231.12
261.244	227.12
261.477	237.12
261.71	217.12
261.942	220.12
262.175	233.12
262.407	212.12
262.64	233.12
262.872	199.12
263.105	220.12
263.337	217.12
263.57	223.12
263.802	209.12
264.035	228.12
264.267	210.12
264.499	204.12
264.732	231.12
264.964	228.12
265.197	215.12
265.429	208.12
265.661	214.12
265.894	220.12
266.126	209.12
266.358	218.12
266.591	209.12
266.823	228.12
267.055	233.12
267.287	242.12
267.52	228.12
267.752	230.12
267.984	224.12
268.216	238.12
268.448	265.12
268.681	260.12
268.913	250.12
269.145	256.12
269.377	263.12
269.609	260.12
269.841	263.12
270.073	280.12
270.306	281.12
270.538	309.12
270.77	298.12
271.002	288.12
271.234	306.12
271.466	296.12
271.698	304.12
271.93	317.12
272.162	294.12
272.394	317.12
272.626	298.12
272.858	285.12
273.09	288.12
273.322	304.12
273.553	262.12
273.785	282.12
274.017	278.12
274.249	276.12
274.481	273.12
274.713	283.12
274.945	288.12
275.176	266.12
275.408	290.12
275.64	278.12
275.872	289.12
276.104	284.12
276.335	274.12
276.567	297.12
276.799	299.12
277.031	324.12
277.262	327.12
277.494	297.12
277.726	307.12
277.957	306.12
278.189	278.12
278.421	287.12
278.652	286.12
278.884	289.12
279.115	274.12
279.347	298.12
279.579	284.12
279.81	268.12
280.042	277.12
280.273	304.12
280.505	295.12
280.736	292.12
280.968	292.12
281.199	289.12
281.431	294.12
281.662	290.12
281.894	277.12
282.125	306.12
282.356	288.12
282.588	303.12
282.819	299.12
283.051	292.12
283.282	281.12
283.513	296.12
283.745	310.12
283.976	307.12
284.207	313.12
284.439	304.12
284.67	297.12
284.901	301.12
285.132	314.12
285.364	317.12
285.595	315.12
285.826	293.12
286.057	306.12
286.288	292.12
286.52	299.12
286.751	317.12
286.982	304.12
287.213	312.12
287.444	311.12
287.675	317.12
287.906	328.12
288.138	310.12
288.369	323.12
288.6	320.12
288.831	308.12
289.062	326.12
289.293	314.12
289.524	324.12
289.755	320.12
289.986	328.12
290.217	310.12
290.448	312.12
290.679	324.12
290.91	318.12
291.141	294.12
291.371	308.12
291.602	317.12
291.833	305.12
292.064	321.12
292.295	307.12
292.526	321.12
292.757	337.12
292.987	316.12
293.218	314.12
293.449	321.12
293.68	313.12
293.91	325.12
294.141	310.12
294.372	307.12
294.603	333.12
294.833	329.12
295.064	319.12
295.295	324.12
295.525	341.12
295.756	337.12
295.987	332.12
296.217	339.12
296.448	346.12
296.679	333.12
296.909	337.12
297.14	329.12
297.37	328.12
297.601	335.12
297.831	352.12
298.062	340.12
298.292	339.12
298.523	331.12
298.753	350.12
298.984	353.12
299.214	341.12
299.445	326.12
299.675	340.12
299.905	357.12
300.136	336.12
300.366	353.12
300.597	353.12
300.827	332.12
301.057	350.12
301.288	362.12
301.518	369.12
301.748	359.12
301.979	358.12
302.209	380.12
302.439	365.12
302.669	352.12
302.9	344.12
303.13	357.12
303.36	346.12
303.59	349.12
303.82	353.12
304.051	357.12
304.281	368.12
304.511	370.12
304.741	348.12
304.971	376.12
305.201	359.12
305.431	368.12
305.661	372.12
305.891	359.12
306.121	371.12
306.352	377.12
306.582	374.12
306.812	359.12
307.042	364.12
307.272	350.12
307.502	362.12
307.731	380.12
307.961	369.12
308.191	377.12
308.421	370.12
308.651	345.12
308.881	370.12
309.111	353.12
309.341	365.12
309.571	378.12
309.8	390.12
310.03	372.12
310.26	396.12
310.49	405.12
310.72	398.12
310.949	404.12
311.179	391.12
311.409	406.12
311.639	371.12
311.868	382.12
312.098	395.12
312.328	394.12
312.557	398.12
312.787	401.12
313.017	400.12
313.246	402.12
313.476	374.12
313.706	395.12
313.935	404.12
314.165	409.12
314.394	408.12
314.624	386.12
314.853	418.12
315.083	415.12
315.312	399.12
315.542	398.12
315.771	402.12
316.001	385.12
316.23	385.12
316.46	392.12
316.689	393.12
316.919	395.12
317.148	404.12
317.377	395.12
317.607	389.12
317.836	387.12
318.065	388.12
318.295	395.12
318.524	403.12
318.753	390.12
318.983	414.12
319.212	404.12
319.441	410.12
319.67	406.12
319.9	409.12
320.129	402.12
320.358	414.12
320.587	410.12
320.816	428.12
321.046	426.12
321.275	414.12
321.504	409.12
321.733	447.12
321.962	420.12
322.191	413.12
322.42	426.12
322.649	429.12
322.878	456.12
323.108	438.12
323.337	474.12
323.566	477.12
323.795	498.12
324.024	494.12
324.253	573.12
324.482	802.12
324.71	1137.12
324.939	1581.12
325.168	1335.12
325.397	716.12
325.626	555.12
325.855	503.12
326.084	466.12
326.313	480.12
326.542	477.12
326.77	504.12
326.999	574.12
327.228	728.12
327.457	1012.12
327.686	1177.12
327.914	793.12
328.143	600.12
328.372	546.12
328.6	540.12
328.829	494.12
329.058	528.12
329.287	506.12
329.515	489.12
329.744	481.12
329.972	477.12
330.201	512.12
330.43	532.12
330.658	550.12
330.887	546.12
331.115	527.12
331.344	514.12
331.572	487.12
331.801	499.12
332.03	499.12
332.258	481.12
332.486	467.12
332.715	471.12
332.943	482.12
333.172	472.12
333.4	471.12
333.629	496.12
333.857	505.12
334.085	520.12
334.314	543.12
334.542	544.12
334.771	550.12
334.999	513.12
335.227	516.12
335.455	471.12
335.684	472.12
335.912	485.12
336.14	476.12
336.369	471.12
336.597	459.12
336.825	473.12
337.053	467.12
337.281	461.12
337.51	487.12
337.738	465.12
337.966	459.12
338.194	448.12
338.422	448.12
338.65	473.12
338.878	451.12
339.106	468.12
339.334	463.12
339.562	439.12
339.79	440.12
340.018	443.12
340.246	445.12
340.474	437.12
340.702	452.12
340.93	438.12
341.158	456.12
341.386	427.12
341.614	461.12
341.842	446.12
342.07	445.12
342.298	424.12
342.526	428.12
342.754	435.12
342.981	428.12
343.209	432.12
343.437	453.12
343.665	453.12
343.893	450.12
344.12	461.12
344.348	471.12
344.576	468.12
344.804	459.12
345.031	458.12
345.259	473.12
345.487	439.12
345.714	440.12
345.942	450.12
346.17	432.12
346.397	433.12
346.625	434.12
346.853	417.12
347.08	421.12
347.308	426.12
347.535	417.12
347.763	412.12
347.99	422.12
348.218	437.12
348.445	409.12
348.673	421.12
348.9	421.12
349.128	417.12
349.355	398.12
349.583	392.12
349.81	389.12
350.037	409.12
350.265	422.12
350.492	427.12
350.72	427.12
350.947	406.12
351.174	400.12
351.402	412.12
351.629	409.12
351.856	424.12
352.083	398.12
352.311	417.12
352.538	416.12
352.765	434.12
352.992	420.12
353.22	419.12
353.447	399.12
353.674	406.12
353.901	375.12
354.128	405.12
354.355	397.12
354.583	410.12
354.81	387.12
355.037	402.12
355.264	395.12
355.491	380.12
355.718	406.12
355.945	393.12
356.172	411.12
356.399	376.12
356.626	385.12
356.853	386.12
357.08	409.12
357.307	401.12
357.534	410.12
357.761	397.12
357.988	380.12
358.215	380.12
358.441	381.12
358.668	397.12
358.895	410.12
359.122	379.12
359.349	390.12
359.576	407.12
359.802	422.12
360.029	437.12
360.256	438.12
360.483	443.12
360.709	413.12
360.936	411.12
361.163	403.12
361.39	419.12
361.616	409.12
361.843	400.12
362.07	390.12
362.296	403.12
362.523	395.12
362.749	403.12
362.976	407.12
363.203	412.12
363.429	402.12
363.656	395.12
363.882	389.12
364.109	408.12
364.335	379.12
364.562	399.12
364.788	395.12
365.015	394.12
365.241	378.12
365.468	412.12
365.694	391.12
365.92	402.12
366.147	388.12
366.373	385.12
366.599	392.12
366.826	385.12
367.052	395.12
367.278	390.12
367.505	403.12
367.731	408.12
367.957	389.12
368.184	386.12
368.41	397.12
368.636	382.12
368.862	398.12
369.089	390.12
369.315	394.12
369.541	386.12
369.767	392.12
369.993	391.12
370.219	383.12
370.445	386.12
370.672	401.12
370.898	371.12
371.124	392.12
371.35	390.12
371.576	416.12
371.802	402.12
372.028	395.12
372.254	384.12
372.48	402.12
372.706	410.12
372.932	402.12
373.158	405.12
373.384	376.12
373.61	398.12
373.835	410.12
374.061	404.12
374.287	402.12
374.513	396.12
374.739	401.12
374.965	395.12
375.191	402.12
375.416	412.12
375.642	412.12
375.868	394.12
376.094	407.12
376.319	388.12
376.545	384.12
376.771	382.12
376.997	373.12
377.222	368.12
377.448	389.12
377.674	375.12
377.899	393.12
378.125	379.12
378.35	412.12
378.576	385.12
378.802	409.12
379.027	380.12
379.253	389.12
379.478	390.12
379.704	390.12
379.929	377.12
380.155	380.12
380.38	381.12
380.606	404.12
380.831	396.12
381.057	381.12
381.282	388.12
381.507	388.12
381.733	390.12
381.958	377.12
382.184	390.12
382.409	395.12
382.634	385.12
382.86	403.12
383.085	398.12
383.31	379.12
383.535	381.12
383.761	390.12
383.986	408.12
384.211	400.12
384.436	405.12
384.662	411.12
384.887	429.12
385.112	419.12
385.337	421.12
385.562	405.12
385.787	424.12
386.013	416.12
386.238	434.12
386.463	429.12
386.688	450.12
386.913	446.12
387.138	416.12
387.363	401.12
387.588	420.12
387.813	448.12
388.038	421.12
388.263	436.12
388.488	430.12
388.713	432.12
388.938	430.12
389.163	429.12
389.387	426.12
389.612	422.12
389.837	415.12
390.062	424.12
390.287	413.12
390.512	424.12
390.736	436.12
390.961	427.12
391.186	432.12
391.411	409.12
391.636	432.12
391.86	421.12
392.085	428.12
392.31	429.12
392.534	428.12
392.759	423.12
392.984	428.12
393.208	428.12
393.433	437.12
393.658	434.12
393.882	422.12
394.107	428.12
394.331	437.12
394.556	414.12
394.78	414.12
395.005	422.12
395.229	428.12
395.454	437.12
395.678	425.12
395.903	436.12
396.127	458.12
396.352	461.12
396.576	440.12
396.801	422.12
397.025	424.12
397.249	424.12
397.474	466.12
397.698	462.12
397.922	448.12
398.147	456.12
398.371	445.12
398.595	477.12
398.82	468.12
399.044	496.12
399.268	524.12
399.492	566.12
399.717	568.12
399.941	616.12
400.165	598.12
400.389	591.12
400.613	557.12
400.837	480.12
401.062	485.12
401.286	489.12
401.51	476.12
401.734	491.12
401.958	467.12
402.182	467.12
402.406	472.12
402.63	481.12
402.854	483.12
403.078	488.12
403.302	514.12
403.526	512.12
403.75	504.12
403.974	507.12
404.198	517.12
404.422	514.12
404.645	496.12
404.869	500.12
405.093	534.12
405.317	558.12
405.541	578.12
405.765	517.12
405.988	522.12
406.212	508.12
406.436	537.12
406.66	517.12
406.883	505.12
407.107	550.12
407.331	567.12
407.555	632.12
407.778	616.12
408.002	575.12
408.226	552.12
408.449	541.12
408.673	557.12
408.896	551.12
409.12	564.12
409.344	568.12
409.567	504.12
409.791	482.12
410.014	495.12
410.238	502.12
410.461	483.12
410.685	512.12
410.908	500.12
411.132	521.12
411.355	534.12
411.578	517.12
411.802	498.12
412.025	498.12
412.249	485.12
412.472	475.12
412.695	548.12
412.919	533.12
413.142	520.12
413.365	477.12
413.589	489.12
413.812	485.12
414.035	468.12
414.258	475.12
414.482	468.12
414.705	471.12
414.928	474.12
415.151	461.12
415.374	463.12
415.597	463.12
415.821	456.12
416.044	451.12
416.267	452.12
416.49	440.12
416.713	442.12
416.936	440.12
417.159	454.12
417.382	448.12
417.605	467.12
417.828	463.12
418.051	469.12
418.274	475.12
418.497	445.12
418.72	462.12
418.943	459.12
419.166	467.12
419.389	499.12
419.611	490.12
419.834	480.12
420.057	474.12
420.28	474.12
420.503	471.12
420.726	466.12
420.948	459.12
421.171	508.12
421.394	525.12
421.617	470.12
421.839	473.12
422.062	461.12
422.285	454.12
422.507	511.12
422.73	582.12
422.953	540.12
423.175	476.12
423.398	482.12
423.621	475.12
423.843	501.12
424.066	512.12
424.288	492.12
424.511	512.12
424.733	550.12
424.956	601.12
425.178	590.12
425.401	588.12
425.623	576.12
425.846	536.12
426.068	486.12
426.291	480.12
426.513	505.12
426.735	508.12
426.958	533.12
427.18	585.12
427.402	671.12
427.625	714.12
427.847	610.12
428.069	551.12
428.292	494.12
428.514	470.12
428.736	450.12
428.958	448.12
429.181	451.12
429.403	448.12
429.625	473.12
429.847	466.12
430.069	513.12
430.292	512.12
430.514	456.12
430.736	443.12
430.958	441.12
431.18	422.12
431.402	429.12
431.624	418.12
431.846	429.12
432.068	423.12
432.29	418.12
432.512	427.12
432.734	451.12
432.956	448.12
433.178	462.12
433.4	435.12
433.622	442.12
433.844	432.12
434.066	433.12
434.287	431.12
434.509	421.12
434.731	441.12
434.953	449.12
435.175	472.12
435.397	481.12
435.618	456.12
435.84	520.12
436.062	567.12
436.284	630.12
436.505	542.12
436.727	478.12
436.949	462.12
437.17	446.12
437.392	447.12
437.614	441.12
437.835	492.12
438.057	528.12
438.278	602.12
438.5	611.12
438.721	663.12
438.943	642.12
439.165	527.12
439.386	474.12
439.608	467.12
439.829	465.12
440.05	474.12
440.272	531.12
440.493	491.12
440.715	446.12
440.936	462.12
441.158	469.12
441.379	453.12
441.6	462.12
441.822	471.12
442.043	522.12
442.264	582.12
442.486	594.12
442.707	504.12
442.928	503.12
443.149	523.12
443.371	499.12
443.592	544.12
443.813	627.12
444.034	659.12
444.255	548.12
444.476	500.12
444.698	489.12
444.919	489.12
445.14	610.12
445.361	528.12
445.582	524.12
445.803	543.12
446.024	610.12
446.245	637.12
446.466	565.12
446.687	490.12
446.908	483.12
447.129	436.12
447.35	442.12
447.571	442.12
447.792	426.12
448.013	429.12
448.234	445.12
448.455	485.12
448.675	560.12
448.896	646.12
449.117	545.12
449.338	522.12
449.559	589.12
449.779	663.12
450	543.12
450.221	460.12
450.442	440.12
450.662	434.12
450.883	409.12
451.104	416.12
451.324	427.12
451.545	407.12
451.766	400.12
451.986	402.12
452.207	405.12
452.428	398.12
452.648	403.12
452.869	395.12
453.089	402.12
453.31	388.12
453.53	404.12
453.751	398.12
453.971	394.12
454.192	398.12
454.412	412.12
454.633	396.12
454.853	387.12
455.073	362.12
455.294	416.12
455.514	476.12
455.734	444.12
455.955	401.12
456.175	379.12
456.395	361.12
456.616	374.12
456.836	392.12
457.056	381.12
457.276	370.12
457.497	376.12
457.717	375.12
457.937	374.12
458.157	356.12
458.377	404.12
458.598	417.12
458.818	432.12
459.038	472.12
459.258	496.12
459.478	454.12
459.698	440.12
459.918	425.12
460.138	427.12
460.358	456.12
460.578	432.12
460.798	447.12
461.018	452.12
461.238	455.12
461.458	439.12
461.678	456.12
461.898	433.12
462.118	451.12
462.338	453.12
462.558	447.12
462.777	479.12
462.997	477.12
463.217	476.12
463.437	504.12
463.657	498.12
463.876	472.12
464.096	480.12
464.316	489.12
464.536	482.12
464.755	487.12
464.975	457.12
465.195	487.12
465.414	508.12
465.634	460.12
465.854	455.12
466.073	425.12
466.293	422.12
466.512	429.12
466.732	424.12
466.951	416.12
467.171	387.12
467.391	422.12
467.61	404.12
467.829	407.12
468.049	407.12
468.268	414.12
468.488	403.12
468.707	388.12
468.927	421.12
469.146	407.12
469.365	390.12
469.585	385.12
469.804	408.12
470.023	413.12
470.243	403.12
470.462	411.12
470.681	413.12
470.901	406.12
471.12	404.12
471.339	402.12
471.558	428.12
471.777	416.12
471.997	409.12
472.216	421.12
472.435	430.12
472.654	423.12
472.873	409.12
473.092	393.12
473.311	407.12
473.53	435.12
473.749	417.12
473.968	462.12
474.187	511.12
474.406	526.12
474.625	448.12
474.844	395.12
475.063	411.12
475.282	412.12
475.501	415.12
475.72	418.12
475.939	413.12
476.158	414.12
476.377	422.12
476.596	418.12
476.814	423.12
477.033	427.12
477.252	449.12
477.471	436.12
477.69	440.12
477.908	454.12
478.127	455.12
478.346	444.12
478.564	460.12
478.783	461.12
479.002	455.12
479.22	458.12
479.439	482.12
479.658	491.12
479.876	481.12
480.095	492.12
480.313	529.12
480.532	499.12
480.751	500.12
480.969	516.12
481.188	537.12
481.406	550.12
481.624	485.12
481.843	489.12
482.061	483.12
482.28	473.12
482.498	465.12
482.717	512.12
482.935	491.12
483.153	477.12
483.372	467.12
483.59	478.12
483.808	474.12
484.027	472.12
484.245	475.12
484.463	483.12
484.681	476.12
484.9	463.12
485.118	480.12
485.336	485.12
485.554	486.12
485.772	482.12
485.99	469.12
486.209	480.12
486.427	495.12
486.645	490.12
486.863	497.12
487.081	515.12
487.299	524.12
487.517	484.12
487.735	504.12
487.953	500.12
488.171	483.12
488.389	495.12
488.607	518.12
488.825	493.12
489.043	503.12
489.261	502.12
489.479	506.12
489.696	517.12
489.914	515.12
490.132	519.12
490.35	515.12
490.568	521.12
490.786	523.12
491.003	502.12
491.221	542.12
491.439	553.12
491.657	554.12
491.874	552.12
492.092	541.12
492.31	547.12
492.527	548.12
492.745	550.12
492.963	569.12
493.18	565.12
493.398	573.12
493.615	593.12
493.833	593.12
494.05	563.12
494.268	604.12
494.485	572.12
494.703	596.12
494.92	570.12
495.138	564.12
495.355	567.12
495.573	605.12
495.79	573.12
496.008	581.12
496.225	585.12
496.442	570.12
496.66	586.12
496.877	616.12
497.094	605.12
497.312	612.12
497.529	621.12
497.746	615.12
497.963	637.12
498.181	632.12
498.398	640.12
498.615	670.12
498.832	673.12
499.049	705.12
499.267	696.12
499.484	744.12
499.701	789.12
499.918	806.12
500.135	870.12
500.352	900.12
500.569	902.12
500.786	924.12
501.003	908.12
501.22	870.12
501.437	830.12
501.654	797.12
501.871	765.12
502.088	752.12
502.305	700.12
502.522	683.12
502.739	668.12
502.956	652.12
503.172	636.12
503.389	614.12
503.606	612.12
503.823	628.12
504.04	613.12
504.256	601.12
504.473	576.12
504.69	590.12
504.907	613.12
505.123	600.12
505.34	566.12
505.557	549.12
505.773	552.12
505.99	562.12
506.207	558.12
506.423	556.12
506.64	553.12
506.856	537.12
507.073	550.12
507.289	514.12
507.506	514.12
507.722	520.12
507.939	538.12
508.155	514.12
508.372	520.12
508.588	528.12
508.805	493.12
509.021	520.12
509.238	527.12
509.454	514.12
509.67	524.12
509.887	485.12
510.103	516.12
510.319	504.12
510.536	548.12
510.752	764.12
510.968	626.12
511.184	517.12
511.401	474.12
511.617	502.12
511.833	471.12
512.049	485.12
512.265	511.12
512.481	483.12
512.698	485.12
512.914	498.12
513.13	488.12
513.346	471.12
513.562	481.12
513.778	491.12
513.994	490.12
514.21	467.12
514.426	514.12
514.642	524.12
514.858	526.12
515.074	534.12
515.29	620.12
515.506	747.12
515.721	653.12
515.937	532.12
516.153	522.12
516.369	520.12
516.585	515.12
516.801	500.12
517.016	509.12
517.232	524.12
517.448	535.12
517.664	534.12
517.879	546.12
518.095	517.12
518.311	538.12
518.527	509.12
518.742	503.12
518.958	507.12
519.173	493.12
519.389	501.12
519.605	496.12
519.82	477.12
520.036	484.12
520.251	498.12
520.467	512.12
520.682	510.12
520.898	502.12
521.113	516.12
521.329	524.12
521.544	551.12
521.76	647.12
521.975	922.12
522.19	860.12
522.406	568.12
522.621	498.12
522.836	482.12
523.052	472.12
523.267	460.12
523.482	428.12
523.698	424.12
523.913	445.12
524.128	442.12
524.343	409.12
524.559	430.12
524.774	414.12
524.989	416.12
525.204	434.12
525.419	415.12
525.634	442.12
525.849	394.12
526.064	426.12
526.28	416.12
526.495	425.12
526.71	396.12
526.925	389.12
527.14	395.12
527.355	414.12
527.57	404.12
527.785	399.12
527.999	395.12
528.214	426.12
528.429	389.12
528.644	410.12
528.859	413.12
529.074	394.12
529.289	431.12
529.503	449.12
529.718	428.12
529.933	421.12
530.148	425.12
530.363	414.12
530.577	396.12
530.792	402.12
531.007	405.12
531.221	418.12
531.436	392.12
531.651	392.12
531.865	398.12
532.08	403.12
532.295	402.12
532.509	382.12
532.724	399.12
532.938	395.12
533.153	379.12
533.367	373.12
533.582	410.12
533.796	385.12
534.011	375.12
534.225	370.12
534.44	391.12
534.654	364.12
534.868	389.12
535.083	382.12
535.297	389.12
535.511	378.12
535.726	395.12
535.94	386.12
536.154	392.12
536.369	386.12
536.583	390.12
536.797	361.12
537.011	379.12
537.225	372.12
537.44	395.12
537.654	363.12
537.868	377.12
538.082	381.12
538.296	381.12
538.51	382.12
538.724	360.12
538.938	388.12
539.153	384.12
539.367	374.12
539.581	374.12
539.795	358.12
540.009	372.12
540.222	378.12
540.436	389.12
540.65	368.12
540.864	380.12
541.078	373.12
541.292	384.12
541.506	346.12
541.72	380.12
541.934	379.12
542.147	371.12
542.361	372.12
542.575	356.12
542.789	370.12
543.002	358.12
543.216	384.12
543.43	381.12
543.644	371.12
543.857	361.12
544.071	382.12
544.285	373.12
544.498	377.12
544.712	384.12
544.925	384.12
545.139	369.12
545.352	376.12
545.566	371.12
545.779	390.12
545.993	372.12
546.206	385.12
546.42	359.12
546.633	373.12
546.847	377.12
547.06	360.12
547.274	380.12
547.487	363.12
547.7	355.12
547.914	360.12
548.127	393.12
548.34	372.12
548.554	355.12
548.767	372.12
548.98	361.12
549.193	372.12
549.407	360.12
549.62	378.12
549.833	364.12
550.046	352.12
550.259	345.12
550.473	363.12
550.686	366.12
550.899	372.12
551.112	356.12
551.325	382.12
551.538	361.12
551.751	349.12
551.964	342.12
552.177	373.12
552.39	354.12
552.603	356.12
552.816	354.12
553.029	377.12
553.242	389.12
553.455	375.12
553.667	380.12
553.88	369.12
554.093	374.12
554.306	377.12
554.519	361.12
554.732	370.12
554.944	346.12
555.157	354.12
555.37	354.12
555.583	353.12
555.795	360.12
556.008	345.12
556.221	337.12
556.433	321.12
556.646	335.12
556.859	328.12
557.071	326.12
557.284	343.12
557.496	334.12
557.709	330.12
557.921	320.12
558.134	313.12
558.346	321.12
558.559	316.12
558.771	334.12
558.984	321.12
559.196	325.12
559.409	325.12
559.621	330.12
559.833	315.12
560.046	327.12
560.258	328.12
560.47	324.12
560.683	320.12
560.895	335.12
561.107	333.12
561.32	328.12
561.532	312.12
561.744	320.12
561.956	321.12
562.168	307.12
562.381	341.12
562.593	315.12
562.805	338.12
563.017	326.12
563.229	325.12
563.441	312.12
563.653	332.12
563.865	342.12
564.077	329.12
564.289	340.12
564.501	340.12
564.713	336.12
564.925	333.12
565.137	357.12
565.349	359.12
565.561	355.12
565.773	339.12
565.985	359.12
566.197	376.12
566.408	384.12
566.62	399.12
566.832	412.12
567.044	434.12
567.255	399.12
567.467	421.12
567.679	432.12
567.891	412.12
568.102	428.12
568.314	424.12
568.526	404.12
568.737	392.12
568.949	397.12
569.161	378.12
569.372	359.12
569.584	327.12
569.795	368.12
570.007	344.12
570.218	365.12
570.43	339.12
570.641	333.12
570.853	297.12
571.064	317.12
571.276	333.12
571.487	313.12
571.698	300.12
571.91	291.12
572.121	292.12
572.333	300.12
572.544	283.12
572.755	299.12
572.966	290.12
573.178	299.12
573.389	298.12
573.6	288.12
573.811	292.12
574.023	280.12
574.234	298.12
574.445	282.12
574.656	269.12
574.867	290.12
575.078	281.12
575.289	264.12
575.501	271.12
575.712	269.12
575.923	259.12
576.134	280.12
576.345	260.12
576.556	274.12
576.767	285.12
576.978	273.12
577.188	264.12
577.399	278.12
577.61	252.12
577.821	273.12
578.032	268.12
578.243	269.12
578.454	348.12
578.665	306.12
578.875	262.12
579.086	271.12
579.297	263.12
579.508	264.12
579.718	249.12
579.929	272.12
580.14	265.12
580.35	262.12
580.561	261.12
580.772	279.12
580.982	260.12
581.193	251.12
581.403	260.12
581.614	266.12
581.825	261.12
582.035	248.12
582.246	265.12
582.456	263.12
582.667	243.12
582.877	258.12
583.087	244.12
583.298	252.12
583.508	257.12
583.719	260.12
583.929	256.12
584.139	253.12
584.35	247.12
584.56	282.12
584.77	250.12
584.981	256.12
585.191	269.12
585.401	251.12
585.611	236.12
585.821	243.12
586.032	232.12
586.242	245.12
586.452	246.12
586.662	226.12
586.872	231.12
587.082	254.12
587.292	254.12
587.502	254.12
587.713	248.12
587.923	236.12
588.133	249.12
588.343	243.12
588.553	258.12
588.762	250.12
588.972	256.12
589.182	250.12
589.392	255.12
589.602	245.12
589.812	250.12
590.022	241.12
590.232	246.12
590.441	249.12
590.651	249.12
590.861	248.12
591.071	260.12
591.281	247.12
591.49	264.12
591.7	262.12
591.91	264.12
592.119	257.12
592.329	273.12
592.539	269.12
592.748	264.12
592.958	266.12
593.167	279.12
593.377	260.12
593.587	274.12
593.796	258.12
594.006	279.12
594.215	256.12
594.424	262.12
594.634	271.12
594.843	252.12
595.053	256.12
595.262	270.12
595.472	258.12
595.681	243.12
595.89	237.12
596.1	239.12
596.309	237.12
596.518	240.12
596.727	231.12
596.937	214.12
597.146	233.12
597.355	230.12
597.564	231.12
597.774	237.12
597.983	223.12
598.192	237.12
598.401	233.12
598.61	224.12
598.819	217.12
599.028	228.12
599.237	242.12
599.446	221.12
599.655	222.12
599.864	202.12
600.073	236.12
600.282	229.12
600.491	216.12
600.7	201.12
600.909	224.12
601.118	222.12
601.327	210.12
601.536	243.12
601.745	217.12
601.953	214.12
602.162	206.12
602.371	210.12
602.58	195.12
602.789	220.12
602.997	202.12
603.206	218.12
603.415	207.12
603.623	227.12
603.832	200.12
604.041	202.12
604.249	217.12
604.458	211.12
604.666	200.12
604.875	197.12
605.084	200.12
605.292	208.12
605.501	210.12
605.709	201.12
605.918	214.12
606.126	196.12
606.334	214.12
606.543	217.12
606.751	203.12
606.96	220.12
607.168	208.12
607.376	186.12
607.585	209.12
607.793	201.12
608.001	208.12
608.21	206.12
608.418	193.12
608.626	180.12
608.834	191.12
609.043	201.12
609.251	205.12
609.459	191.12
609.667	187.12
609.875	198.12
610.083	207.12
610.291	202.12
610.499	205.12
610.707	206.12
610.916	206.12
611.124	212.12
611.332	209.12
611.54	208.12
611.748	210.12
611.955	209.12
612.163	193.12
612.371	202.12
612.579	190.12
612.787	199.12
612.995	201.12
613.203	208.12
613.411	222.12
613.618	206.12
613.826	217.12
614.034	209.12
614.242	215.12
614.449	202.12
614.657	203.12
614.865	198.12
615.072	208.12
615.28	191.12
615.488	210.12
615.695	217.12
615.903	192.12
616.111	190.12
616.318	198.12
616.526	208.12
616.733	204.12
616.941	197.12
617.148	211.12
617.356	199.12
617.563	182.12
617.771	197.12
617.978	183.12
618.185	195.12
618.393	200.12
618.6	186.12
618.807	198.12
619.015	186.12
619.222	195.12
619.429	191.12
619.637	208.12
619.844	193.12
620.051	193.12
620.258	188.12
620.466	167.12
620.673	204.12
620.88	190.12
621.087	190.12
621.294	160.12
621.501	178.12
621.708	192.12
621.915	192.12
622.122	180.12
622.329	191.12
622.536	198.12
622.743	180.12
622.95	160.12
623.157	184.12
623.364	193.12
623.571	188.12
623.778	187.12
623.985	172.12
624.192	179.12
624.399	178.12
624.606	184.12
624.812	187.12
625.019	167.12
625.226	166.12
625.433	201.12
625.639	180.12
625.846	176.12
626.053	182.12
626.259	172.12
626.466	182.12
626.673	200.12
626.879	178.12
627.086	177.12
627.293	170.12
627.499	182.12
627.706	178.12
627.912	178.12
628.119	180.12
628.325	169.12
628.532	160.12
628.738	161.12
628.945	166.12
629.151	164.12
629.357	173.12
629.564	168.12
629.77	171.12
629.976	184.12
630.183	169.12
630.389	159.12
630.595	185.12
630.802	149.12
631.008	176.12
631.214	178.12
631.42	155.12
631.627	164.12
631.833	168.12
632.039	172.12
632.245	154.12
632.451	153.12
632.657	165.12
632.863	148.12
633.069	153.12
633.275	170.12
633.481	171.12
633.688	166.12
633.893	179.12
634.099	177.12
634.305	156.12
634.511	150.12
634.717	164.12
634.923	165.12
635.129	156.12
635.335	161.12
635.541	152.12
635.747	140.12
635.952	164.12
636.158	171.12
636.364	161.12
636.57	173.12
636.775	156.12
636.981	160.12
637.187	149.12
637.392	152.12
637.598	155.12
637.804	171.12
638.009	168.12
638.215	152.12
638.421	148.12
638.626	152.12
638.832	141.12
639.037	150.12
639.243	144.12
639.448	142.12
639.654	150.12
639.859	150.12
640.065	136.12
640.27	155.12
640.475	156.12
640.681	140.12
640.886	157.12
641.091	149.12
641.297	146.12
641.502	152.12
641.707	149.12
641.913	157.12
642.118	149.12
642.323	153.12
642.528	145.12
642.733	140.12
642.939	155.12
643.144	149.12
643.349	153.12
643.554	139.12
643.759	156.12
643.964	155.12
644.169	143.12
644.374	142.12
644.579	148.12
644.784	143.12
644.989	156.12
645.194	146.12
645.399	141.12
645.604	146.12
645.809	140.12
646.014	142.12
646.219	146.12
646.423	134.12
646.628	151.12
646.833	160.12
647.038	131.12
647.243	133.12
647.447	145.12
647.652	152.12
647.857	150.12
648.062	151.12
648.266	149.12
648.471	144.12
648.676	151.12
648.88	152.12
649.085	147.12
649.289	152.12
649.494	146.12
649.698	173.12
649.903	162.12
650.107	143.12
650.312	150.12
650.516	168.12
650.721	137.12
650.925	140.12
651.13	140.12
651.334	139.12
651.539	126.12
651.743	134.12
651.947	129.12
652.152	114.12
652.356	131.12
652.56	136.12
652.764	140.12
652.969	133.12
653.173	128.12
653.377	141.12
653.581	117.12
653.785	124.12
653.99	126.12
654.194	123.12
654.398	121.12
654.602	136.12
654.806	132.12
655.01	124.12
655.214	136.12
655.418	133.12
655.622	120.12
655.826	138.12
656.03	114.12
656.234	135.12
656.438	131.12
656.642	132.12
656.846	130.12
657.049	114.12
657.253	124.12
657.457	113.12
657.661	108.12
657.865	102.12
658.068	96.12
658.272	87.12
658.476	98.12
658.68	112.12
658.883	80.12
659.087	92.12
659.291	98.12
659.494	90.12
659.698	102.12
659.901	89.12
660.105	97.12
660.309	98.12
660.512	80.12
660.716	92.12
660.919	87.12
661.123	94.12
661.326	92.12
661.53	84.12
661.733	94.12
661.936	82.12
662.14	92.12
662.343	73.12
662.546	88.12
662.75	89.12
662.953	86.12
663.156	94.12
663.36	97.12
663.563	88.12
663.766	84.12
663.969	93.12
664.173	74.12
664.376	84.12
664.579	82.12
664.782	83.12
664.985	88.12
665.188	81.12
665.391	76.12
665.594	83.12
665.797	93.12
666	85.12
666.203	78.12
666.406	84.12
666.609	91.12
666.812	74.12
667.015	77.12
667.218	80.12
667.421	78.12
667.624	77.12
667.827	81.12
668.03	63.12
668.232	87.12
668.435	78.12
668.638	85.12
668.841	88.12
669.043	84.12
669.246	83.12
669.449	92.12
669.651	83.12
669.854	81.12
670.057	78.12
670.259	72.12
670.462	77.12
670.665	89.12
670.867	87.12
671.07	89.12
671.272	81.12
671.475	93.12
671.677	83.12
671.88	95.12
672.082	81.12
672.284	89.12
672.487	93.12
672.689	84.12
672.892	97.12
