Data from 1965.PennyLincolnUp.Lamp.En5.5.200Scan.071719.P1._HRD10591_14-08-39-911.txt Node
Date: Thu Jul 18 14:08:39 EDT 2019
User: cochatt
Spectrometer: HR+D1059
Trigger mode: 1
Integration Time (sec): 1.000000E-1
Scans to average: 1
Electric dark correction enabled: true
Nonlinearity correction enabled: false
Boxcar width: 0
XAxis mode: Wavelengths
Number of Pixels in Spectrum: 2048
>>>>>Begin Spectral Data<<<<<
223.165	-13.75
223.4	-13.75
223.635	-13.75
223.869	-24.75
224.104	-12.75
224.338	-19.75
224.573	-20.75
224.808	-3.75
225.042	-16.75
225.277	-15.75
225.511	6.25
225.746	9.25
225.98	7.25
226.215	11.25
226.449	29.25
226.683	15.25
226.918	19.25
227.152	30.25
227.387	35.25
227.621	43.25
227.856	48.25
228.09	57.25
228.324	45.25
228.559	71.25
228.793	78.25
229.027	80.25
229.262	104.25
229.496	96.25
229.73	124.25
229.964	130.25
230.199	101.25
230.433	95.25
230.667	105.25
230.901	85.25
231.136	107.25
231.37	100.25
231.604	108.25
231.838	92.25
232.072	104.25
232.306	106.25
232.541	86.25
232.775	99.25
233.009	100.25
233.243	110.25
233.477	107.25
233.711	126.25
233.945	107.25
234.179	117.25
234.413	102.25
234.647	115.25
234.881	91.25
235.115	101.25
235.349	105.25
235.583	113.25
235.817	107.25
236.051	121.25
236.285	117.25
236.519	126.25
236.753	125.25
236.987	138.25
237.221	163.25
237.455	192.25
237.689	170.25
237.922	139.25
238.156	129.25
238.39	120.25
238.624	110.25
238.858	106.25
239.091	118.25
239.325	121.25
239.559	116.25
239.793	112.25
240.027	115.25
240.26	123.25
240.494	144.25
240.728	135.25
240.961	136.25
241.195	124.25
241.429	113.25
241.662	107.25
241.896	128.25
242.13	137.25
242.363	112.25
242.597	129.25
242.83	109.25
243.064	124.25
243.298	125.25
243.531	119.25
243.765	121.25
243.998	128.25
244.232	125.25
244.465	126.25
244.699	130.25
244.932	123.25
245.166	129.25
245.399	143.25
245.633	144.25
245.866	131.25
246.099	125.25
246.333	127.25
246.566	141.25
246.8	140.25
247.033	149.25
247.266	140.25
247.5	141.25
247.733	147.25
247.966	145.25
248.2	147.25
248.433	136.25
248.666	167.25
248.899	156.25
249.133	151.25
249.366	181.25
249.599	168.25
249.832	166.25
250.066	163.25
250.299	133.25
250.532	174.25
250.765	176.25
250.998	173.25
251.231	176.25
251.465	196.25
251.698	173.25
251.931	155.25
252.164	188.25
252.397	176.25
252.63	182.25
252.863	185.25
253.096	186.25
253.329	183.25
253.562	201.25
253.795	203.25
254.028	184.25
254.261	183.25
254.494	194.25
254.727	223.25
254.96	249.25
255.193	232.25
255.426	215.25
255.659	208.25
255.892	205.25
256.124	205.25
256.357	197.25
256.59	193.25
256.823	191.25
257.056	177.25
257.289	181.25
257.521	183.25
257.754	179.25
257.987	180.25
258.22	203.25
258.452	173.25
258.685	190.25
258.918	172.25
259.151	187.25
259.383	185.25
259.616	211.25
259.849	184.25
260.081	190.25
260.314	218.25
260.547	221.25
260.779	206.25
261.012	204.25
261.244	194.25
261.477	193.25
261.71	184.25
261.942	199.25
262.175	225.25
262.407	197.25
262.64	184.25
262.872	187.25
263.105	170.25
263.337	194.25
263.57	170.25
263.802	195.25
264.035	190.25
264.267	196.25
264.499	189.25
264.732	191.25
264.964	191.25
265.197	181.25
265.429	179.25
265.661	176.25
265.894	183.25
266.126	183.25
266.358	193.25
266.591	186.25
266.823	195.25
267.055	193.25
267.287	193.25
267.52	197.25
267.752	185.25
267.984	197.25
268.216	201.25
268.448	190.25
268.681	209.25
268.913	216.25
269.145	224.25
269.377	218.25
269.609	215.25
269.841	209.25
270.073	236.25
270.306	259.25
270.538	251.25
270.77	278.25
271.002	236.25
271.234	252.25
271.466	252.25
271.698	241.25
271.93	268.25
272.162	269.25
272.394	265.25
272.626	261.25
272.858	263.25
273.09	233.25
273.322	222.25
273.553	231.25
273.785	220.25
274.017	222.25
274.249	228.25
274.481	232.25
274.713	230.25
274.945	213.25
275.176	240.25
275.408	215.25
275.64	221.25
275.872	222.25
276.104	235.25
276.335	233.25
276.567	228.25
276.799	225.25
277.031	243.25
277.262	270.25
277.494	274.25
277.726	246.25
277.957	246.25
278.189	227.25
278.421	223.25
278.652	233.25
278.884	217.25
279.115	229.25
279.347	230.25
279.579	236.25
279.81	230.25
280.042	230.25
280.273	208.25
280.505	231.25
280.736	228.25
280.968	228.25
281.199	213.25
281.431	219.25
281.662	229.25
281.894	235.25
282.125	223.25
282.356	255.25
282.588	254.25
282.819	261.25
283.051	230.25
283.282	230.25
283.513	230.25
283.745	236.25
283.976	218.25
284.207	253.25
284.439	252.25
284.67	244.25
284.901	236.25
285.132	222.25
285.364	232.25
285.595	234.25
285.826	234.25
286.057	241.25
286.288	234.25
286.52	236.25
286.751	224.25
286.982	237.25
287.213	254.25
287.444	233.25
287.675	255.25
287.906	263.25
288.138	267.25
288.369	246.25
288.6	249.25
288.831	245.25
289.062	240.25
289.293	235.25
289.524	253.25
289.755	231.25
289.986	251.25
290.217	251.25
290.448	223.25
290.679	238.25
290.91	246.25
291.141	250.25
291.371	246.25
291.602	233.25
291.833	227.25
292.064	248.25
292.295	250.25
292.526	241.25
292.757	224.25
292.987	237.25
293.218	246.25
293.449	243.25
293.68	252.25
293.91	217.25
294.141	249.25
294.372	224.25
294.603	216.25
294.833	232.25
295.064	260.25
295.295	261.25
295.525	245.25
295.756	255.25
295.987	277.25
296.217	267.25
296.448	282.25
296.679	266.25
296.909	237.25
297.14	254.25
297.37	235.25
297.601	261.25
297.831	247.25
298.062	239.25
298.292	266.25
298.523	255.25
298.753	247.25
298.984	257.25
299.214	246.25
299.445	262.25
299.675	244.25
299.905	265.25
300.136	261.25
300.366	273.25
300.597	252.25
300.827	266.25
301.057	272.25
301.288	291.25
301.518	265.25
301.748	275.25
301.979	271.25
302.209	271.25
302.439	265.25
302.669	268.25
302.9	262.25
303.13	260.25
303.36	284.25
303.59	279.25
303.82	287.25
304.051	311.25
304.281	281.25
304.511	263.25
304.741	277.25
304.971	257.25
305.201	271.25
305.431	280.25
305.661	268.25
305.891	264.25
306.121	288.25
306.352	275.25
306.582	295.25
306.812	284.25
307.042	269.25
307.272	270.25
307.502	298.25
307.731	291.25
307.961	275.25
308.191	281.25
308.421	267.25
308.651	273.25
308.881	284.25
309.111	285.25
309.341	275.25
309.571	303.25
309.8	303.25
310.03	314.25
310.26	299.25
310.49	318.25
310.72	321.25
310.949	331.25
311.179	350.25
311.409	327.25
311.639	329.25
311.868	329.25
312.098	335.25
312.328	326.25
312.557	345.25
312.787	355.25
313.017	335.25
313.246	321.25
313.476	305.25
313.706	320.25
313.935	312.25
314.165	317.25
314.394	347.25
314.624	342.25
314.853	328.25
315.083	305.25
315.312	302.25
315.542	310.25
315.771	334.25
316.001	319.25
316.23	323.25
316.46	316.25
316.689	315.25
316.919	336.25
317.148	315.25
317.377	327.25
317.607	308.25
317.836	325.25
318.065	312.25
318.295	320.25
318.524	311.25
318.753	311.25
318.983	313.25
319.212	314.25
319.441	334.25
319.67	317.25
319.9	325.25
320.129	332.25
320.358	311.25
320.587	324.25
320.816	328.25
321.046	347.25
321.275	335.25
321.504	327.25
321.733	347.25
321.962	366.25
322.191	357.25
322.42	371.25
322.649	383.25
322.878	389.25
323.108	414.25
323.337	415.25
323.566	457.25
323.795	467.25
324.024	530.25
324.253	639.25
324.482	891.25
324.71	1315.25
324.939	1905.25
325.168	1591.25
325.397	849.25
325.626	591.25
325.855	476.25
326.084	444.25
326.313	435.25
326.542	439.25
326.77	479.25
326.999	563.25
327.228	784.25
327.457	1165.25
327.686	1383.25
327.914	915.25
328.143	632.25
328.372	564.25
328.6	539.25
328.829	470.25
329.058	491.25
329.287	520.25
329.515	496.25
329.744	450.25
329.972	455.25
330.201	450.25
330.43	515.25
330.658	516.25
330.887	553.25
331.115	556.25
331.344	453.25
331.572	440.25
331.801	435.25
332.03	411.25
332.258	406.25
332.486	385.25
332.715	379.25
332.943	375.25
333.172	365.25
333.4	385.25
333.629	367.25
333.857	403.25
334.085	411.25
334.314	428.25
334.542	439.25
334.771	468.25
334.999	419.25
335.227	393.25
335.455	383.25
335.684	383.25
335.912	357.25
336.14	381.25
336.369	391.25
336.597	369.25
336.825	378.25
337.053	377.25
337.281	362.25
337.51	375.25
337.738	385.25
337.966	349.25
338.194	400.25
338.422	387.25
338.65	364.25
338.878	343.25
339.106	356.25
339.334	362.25
339.562	359.25
339.79	341.25
340.018	344.25
340.246	360.25
340.474	376.25
340.702	361.25
340.93	351.25
341.158	347.25
341.386	360.25
341.614	367.25
341.842	364.25
342.07	355.25
342.298	354.25
342.526	336.25
342.754	350.25
342.981	313.25
343.209	347.25
343.437	352.25
343.665	355.25
343.893	366.25
344.12	395.25
344.348	348.25
344.576	359.25
344.804	365.25
345.031	374.25
345.259	363.25
345.487	367.25
345.714	373.25
345.942	373.25
346.17	351.25
346.397	360.25
346.625	360.25
346.853	364.25
347.08	372.25
347.308	353.25
347.535	375.25
347.763	371.25
347.99	375.25
348.218	365.25
348.445	355.25
348.673	358.25
348.9	345.25
349.128	353.25
349.355	327.25
349.583	331.25
349.81	352.25
350.037	323.25
350.265	321.25
350.492	359.25
350.72	352.25
350.947	348.25
351.174	348.25
351.402	362.25
351.629	341.25
351.856	368.25
352.083	352.25
352.311	378.25
352.538	371.25
352.765	389.25
352.992	366.25
353.22	351.25
353.447	337.25
353.674	361.25
353.901	365.25
354.128	314.25
354.355	333.25
354.583	317.25
354.81	343.25
355.037	322.25
355.264	340.25
355.491	326.25
355.718	327.25
355.945	314.25
356.172	334.25
356.399	329.25
356.626	327.25
356.853	330.25
357.08	317.25
357.307	315.25
357.534	327.25
357.761	326.25
357.988	336.25
358.215	324.25
358.441	320.25
358.668	324.25
358.895	338.25
359.122	336.25
359.349	334.25
359.576	355.25
359.802	391.25
360.029	379.25
360.256	428.25
360.483	388.25
360.709	357.25
360.936	341.25
361.163	344.25
361.39	347.25
361.616	353.25
361.843	367.25
362.07	360.25
362.296	358.25
362.523	337.25
362.749	347.25
362.976	353.25
363.203	354.25
363.429	349.25
363.656	337.25
363.882	337.25
364.109	342.25
364.335	323.25
364.562	344.25
364.788	345.25
365.015	345.25
365.241	343.25
365.468	338.25
365.694	326.25
365.92	347.25
366.147	331.25
366.373	346.25
366.599	341.25
366.826	335.25
367.052	346.25
367.278	335.25
367.505	335.25
367.731	337.25
367.957	314.25
368.184	345.25
368.41	349.25
368.636	352.25
368.862	347.25
369.089	337.25
369.315	332.25
369.541	342.25
369.767	341.25
369.993	319.25
370.219	327.25
370.445	351.25
370.672	321.25
370.898	324.25
371.124	337.25
371.35	336.25
371.576	320.25
371.802	333.25
372.028	345.25
372.254	333.25
372.48	318.25
372.706	325.25
372.932	304.25
373.158	335.25
373.384	337.25
373.61	321.25
373.835	329.25
374.061	323.25
374.287	289.25
374.513	334.25
374.739	340.25
374.965	350.25
375.191	337.25
375.416	313.25
375.642	325.25
375.868	340.25
376.094	338.25
376.319	344.25
376.545	321.25
376.771	330.25
376.997	340.25
377.222	328.25
377.448	326.25
377.674	328.25
377.899	334.25
378.125	329.25
378.35	325.25
378.576	326.25
378.802	319.25
379.027	311.25
379.253	325.25
379.478	336.25
379.704	331.25
379.929	326.25
380.155	327.25
380.38	322.25
380.606	347.25
380.831	312.25
381.057	328.25
381.282	331.25
381.507	335.25
381.733	331.25
381.958	319.25
382.184	326.25
382.409	337.25
382.634	331.25
382.86	338.25
383.085	328.25
383.31	341.25
383.535	329.25
383.761	345.25
383.986	350.25
384.211	343.25
384.436	344.25
384.662	336.25
384.887	347.25
385.112	341.25
385.337	345.25
385.562	338.25
385.787	339.25
386.013	364.25
386.238	360.25
386.463	359.25
386.688	347.25
386.913	359.25
387.138	341.25
387.363	355.25
387.588	353.25
387.813	359.25
388.038	359.25
388.263	333.25
388.488	346.25
388.713	361.25
388.938	365.25
389.163	355.25
389.387	367.25
389.612	361.25
389.837	360.25
390.062	335.25
390.287	352.25
390.512	347.25
390.736	358.25
390.961	341.25
391.186	353.25
391.411	382.25
391.636	358.25
391.86	347.25
392.085	351.25
392.31	344.25
392.534	354.25
392.759	360.25
392.984	356.25
393.208	358.25
393.433	357.25
393.658	359.25
393.882	348.25
394.107	341.25
394.331	359.25
394.556	350.25
394.78	352.25
395.005	362.25
395.229	357.25
395.454	350.25
395.678	355.25
395.903	370.25
396.127	375.25
396.352	368.25
396.576	375.25
396.801	372.25
397.025	375.25
397.249	363.25
397.474	365.25
397.698	373.25
397.922	364.25
398.147	400.25
398.371	415.25
398.595	387.25
398.82	373.25
399.044	404.25
399.268	404.25
399.492	437.25
399.717	430.25
399.941	468.25
400.165	479.25
400.389	472.25
400.613	452.25
400.837	440.25
401.062	411.25
401.286	410.25
401.51	392.25
401.734	393.25
401.958	398.25
402.182	407.25
402.406	427.25
402.63	413.25
402.854	408.25
403.078	409.25
403.302	410.25
403.526	437.25
403.75	408.25
403.974	419.25
404.198	430.25
404.422	409.25
404.645	430.25
404.869	437.25
405.093	433.25
405.317	461.25
405.541	487.25
405.765	459.25
405.988	431.25
406.212	447.25
406.436	476.25
406.66	442.25
406.883	448.25
407.107	453.25
407.331	489.25
407.555	535.25
407.778	506.25
408.002	481.25
408.226	457.25
408.449	455.25
408.673	476.25
408.896	480.25
409.12	492.25
409.344	479.25
409.567	447.25
409.791	430.25
410.014	401.25
410.238	421.25
410.461	409.25
410.685	421.25
410.908	443.25
411.132	445.25
411.355	477.25
411.578	462.25
411.802	446.25
412.025	436.25
412.249	428.25
412.472	412.25
412.695	478.25
412.919	475.25
413.142	419.25
413.365	422.25
413.589	414.25
413.812	404.25
414.035	396.25
414.258	383.25
414.482	373.25
414.705	421.25
414.928	378.25
415.151	371.25
415.374	389.25
415.597	372.25
415.821	383.25
416.044	392.25
416.267	375.25
416.49	396.25
416.713	390.25
416.936	375.25
417.159	388.25
417.382	386.25
417.605	402.25
417.828	408.25
418.051	400.25
418.274	417.25
418.497	407.25
418.72	384.25
418.943	398.25
419.166	413.25
419.389	443.25
419.611	411.25
419.834	396.25
420.057	411.25
420.28	429.25
420.503	409.25
420.726	402.25
420.948	429.25
421.171	425.25
421.394	455.25
421.617	439.25
421.839	429.25
422.062	422.25
422.285	409.25
422.507	446.25
422.73	519.25
422.953	515.25
423.175	441.25
423.398	434.25
423.621	423.25
423.843	445.25
424.066	444.25
424.288	449.25
424.511	469.25
424.733	484.25
424.956	567.25
425.178	531.25
425.401	541.25
425.623	551.25
425.846	472.25
426.068	469.25
426.291	450.25
426.513	440.25
426.735	452.25
426.958	496.25
427.18	563.25
427.402	637.25
427.625	710.25
427.847	637.25
428.069	555.25
428.292	505.25
428.514	447.25
428.736	442.25
428.958	444.25
429.181	419.25
429.403	398.25
429.625	426.25
429.847	440.25
430.069	498.25
430.292	486.25
430.514	435.25
430.736	407.25
430.958	411.25
431.18	398.25
431.402	406.25
431.624	384.25
431.846	366.25
432.068	383.25
432.29	405.25
432.512	400.25
432.734	390.25
432.956	396.25
433.178	408.25
433.4	391.25
433.622	393.25
433.844	389.25
434.066	391.25
434.287	398.25
434.509	394.25
434.731	413.25
434.953	421.25
435.175	419.25
435.397	448.25
435.618	457.25
435.84	472.25
436.062	523.25
436.284	589.25
436.505	515.25
436.727	464.25
436.949	437.25
437.17	413.25
437.392	423.25
437.614	409.25
437.835	455.25
438.057	533.25
438.278	620.25
438.5	617.25
438.721	667.25
438.943	618.25
439.165	501.25
439.386	480.25
439.608	475.25
439.829	459.25
440.05	494.25
440.272	527.25
440.493	475.25
440.715	451.25
440.936	419.25
441.158	425.25
441.379	425.25
441.6	440.25
441.822	437.25
442.043	474.25
442.264	560.25
442.486	563.25
442.707	493.25
442.928	471.25
443.149	471.25
443.371	495.25
443.592	519.25
443.813	567.25
444.034	604.25
444.255	519.25
444.476	473.25
444.698	468.25
444.919	448.25
445.14	540.25
445.361	487.25
445.582	487.25
445.803	530.25
446.024	639.25
446.245	642.25
446.466	578.25
446.687	497.25
446.908	468.25
447.129	443.25
447.35	431.25
447.571	395.25
447.792	422.25
448.013	431.25
448.234	439.25
448.455	490.25
448.675	567.25
448.896	640.25
449.117	557.25
449.338	533.25
449.559	583.25
449.779	651.25
450	548.25
450.221	479.25
450.442	435.25
450.662	428.25
450.883	423.25
451.104	441.25
451.324	411.25
451.545	392.25
451.766	391.25
451.986	382.25
452.207	364.25
452.428	360.25
452.648	387.25
452.869	382.25
453.089	391.25
453.31	389.25
453.53	401.25
453.751	383.25
453.971	397.25
454.192	395.25
454.412	412.25
454.633	369.25
454.853	378.25
455.073	382.25
455.294	391.25
455.514	453.25
455.734	431.25
455.955	394.25
456.175	368.25
456.395	368.25
456.616	343.25
456.836	367.25
457.056	360.25
457.276	358.25
457.497	366.25
457.717	355.25
457.937	377.25
458.157	361.25
458.377	357.25
458.598	372.25
458.818	433.25
459.038	517.25
459.258	535.25
459.478	445.25
459.698	416.25
459.918	396.25
460.138	381.25
460.358	388.25
460.578	397.25
460.798	382.25
461.018	414.25
461.238	404.25
461.458	383.25
461.678	393.25
461.898	406.25
462.118	394.25
462.338	393.25
462.558	415.25
462.777	384.25
462.997	393.25
463.217	420.25
463.437	425.25
463.657	409.25
463.876	423.25
464.096	413.25
464.316	440.25
464.536	411.25
464.755	418.25
464.975	423.25
465.195	459.25
465.414	552.25
465.634	488.25
465.854	422.25
466.073	425.25
466.293	391.25
466.512	412.25
466.732	401.25
466.951	371.25
467.171	381.25
467.391	406.25
467.61	392.25
467.829	403.25
468.049	399.25
468.268	399.25
468.488	391.25
468.707	389.25
468.927	366.25
469.146	375.25
469.365	360.25
469.585	379.25
469.804	391.25
470.023	410.25
470.243	391.25
470.462	399.25
470.681	419.25
470.901	413.25
471.12	392.25
471.339	381.25
471.558	397.25
471.777	386.25
471.997	409.25
472.216	399.25
472.435	438.25
472.654	409.25
472.873	419.25
473.092	383.25
473.311	402.25
473.53	387.25
473.749	396.25
473.968	417.25
474.187	504.25
474.406	540.25
474.625	427.25
474.844	416.25
475.063	405.25
475.282	410.25
475.501	396.25
475.72	419.25
475.939	420.25
476.158	428.25
476.377	405.25
476.596	400.25
476.814	401.25
477.033	430.25
477.252	427.25
477.471	413.25
477.69	423.25
477.908	425.25
478.127	435.25
478.346	423.25
478.564	428.25
478.783	423.25
479.002	454.25
479.22	460.25
479.439	460.25
479.658	456.25
479.876	456.25
480.095	487.25
480.313	479.25
480.532	491.25
480.751	461.25
480.969	479.25
481.188	540.25
481.406	577.25
481.624	492.25
481.843	472.25
482.061	490.25
482.28	466.25
482.498	477.25
482.717	445.25
482.935	467.25
483.153	460.25
483.372	468.25
483.59	449.25
483.808	461.25
484.027	451.25
484.245	476.25
484.463	446.25
484.681	483.25
484.9	476.25
485.118	474.25
485.336	492.25
485.554	464.25
485.772	480.25
485.99	480.25
486.209	490.25
486.427	459.25
486.645	479.25
486.863	522.25
487.081	540.25
487.299	522.25
487.517	482.25
487.735	480.25
487.953	477.25
488.171	493.25
488.389	477.25
488.607	503.25
488.825	495.25
489.043	501.25
489.261	477.25
489.479	502.25
489.696	491.25
489.914	501.25
490.132	503.25
490.35	519.25
490.568	501.25
490.786	499.25
491.003	514.25
491.221	554.25
491.439	548.25
491.657	537.25
491.874	550.25
492.092	558.25
492.31	559.25
492.527	560.25
492.745	574.25
492.963	546.25
493.18	560.25
493.398	572.25
493.615	592.25
493.833	565.25
494.05	593.25
494.268	584.25
494.485	582.25
494.703	580.25
494.92	593.25
495.138	551.25
495.355	567.25
495.573	569.25
495.79	553.25
496.008	581.25
496.225	587.25
496.442	560.25
496.66	599.25
496.877	603.25
497.094	558.25
497.312	595.25
497.529	580.25
497.746	604.25
497.963	604.25
498.181	643.25
498.398	631.25
498.615	645.25
498.832	615.25
499.049	652.25
499.267	652.25
499.484	645.25
499.701	672.25
499.918	678.25
500.135	703.25
500.352	712.25
500.569	745.25
500.786	734.25
501.003	748.25
501.22	719.25
501.437	717.25
501.654	693.25
501.871	708.25
502.088	695.25
502.305	646.25
502.522	646.25
502.739	638.25
502.956	643.25
503.172	612.25
503.389	603.25
503.606	578.25
503.823	613.25
504.04	587.25
504.256	599.25
504.473	597.25
504.69	559.25
504.907	585.25
505.123	579.25
505.34	565.25
505.557	554.25
505.773	565.25
505.99	585.25
506.207	565.25
506.423	551.25
506.64	565.25
506.856	566.25
507.073	548.25
507.289	553.25
507.506	546.25
507.722	551.25
507.939	560.25
508.155	560.25
508.372	526.25
508.588	546.25
508.805	544.25
509.021	521.25
509.238	557.25
509.454	551.25
509.67	542.25
509.887	544.25
510.103	528.25
510.319	556.25
510.536	655.25
510.752	1142.25
510.968	876.25
511.184	571.25
511.401	529.25
511.617	520.25
511.833	492.25
512.049	527.25
512.265	511.25
512.481	482.25
512.698	509.25
512.914	514.25
513.13	508.25
513.346	496.25
513.562	511.25
513.778	508.25
513.994	520.25
514.21	536.25
514.426	570.25
514.642	599.25
514.858	603.25
515.074	675.25
515.29	798.25
515.506	1233.25
515.721	1008.25
515.937	647.25
516.153	585.25
516.369	546.25
516.585	559.25
516.801	525.25
517.016	531.25
517.232	513.25
517.448	513.25
517.664	525.25
517.879	524.25
518.095	519.25
518.311	504.25
518.527	507.25
518.742	522.25
518.958	529.25
519.173	503.25
519.389	494.25
519.605	519.25
519.82	523.25
520.036	548.25
520.251	570.25
520.467	593.25
520.682	586.25
520.898	573.25
521.113	593.25
521.329	627.25
521.544	746.25
521.76	981.25
521.975	1664.25
522.19	1617.25
522.406	849.25
522.621	615.25
522.836	573.25
523.052	523.25
523.267	492.25
523.482	484.25
523.698	490.25
523.913	495.25
524.128	501.25
524.343	451.25
524.559	450.25
524.774	465.25
524.989	450.25
525.204	474.25
525.419	449.25
525.634	453.25
525.849	431.25
526.064	437.25
526.28	427.25
526.495	441.25
526.71	422.25
526.925	438.25
527.14	419.25
527.355	405.25
527.57	411.25
527.785	411.25
527.999	408.25
528.214	413.25
528.429	403.25
528.644	423.25
528.859	399.25
529.074	428.25
529.289	469.25
529.503	543.25
529.718	499.25
529.933	448.25
530.148	439.25
530.363	427.25
530.577	441.25
530.792	401.25
531.007	411.25
531.221	395.25
531.436	409.25
531.651	400.25
531.865	409.25
532.08	400.25
532.295	400.25
532.509	401.25
532.724	413.25
532.938	388.25
533.153	374.25
533.367	407.25
533.582	385.25
533.796	392.25
534.011	390.25
534.225	388.25
534.44	386.25
534.654	367.25
534.868	376.25
535.083	407.25
535.297	395.25
535.511	399.25
535.726	424.25
535.94	393.25
536.154	389.25
536.369	388.25
536.583	374.25
536.797	379.25
537.011	378.25
537.225	405.25
537.44	372.25
537.654	383.25
537.868	385.25
538.082	381.25
538.296	381.25
538.51	393.25
538.724	386.25
538.938	380.25
539.153	364.25
539.367	395.25
539.581	387.25
539.795	391.25
540.009	376.25
540.222	381.25
540.436	388.25
540.65	397.25
540.864	402.25
541.078	401.25
541.292	397.25
541.506	375.25
541.72	384.25
541.934	380.25
542.147	357.25
542.361	377.25
542.575	355.25
542.789	358.25
543.002	360.25
543.216	382.25
543.43	372.25
543.644	379.25
543.857	366.25
544.071	362.25
544.285	381.25
544.498	372.25
544.712	340.25
544.925	381.25
545.139	378.25
545.352	353.25
545.566	363.25
545.779	372.25
545.993	363.25
546.206	365.25
546.42	382.25
546.633	364.25
546.847	354.25
547.06	366.25
547.274	346.25
547.487	376.25
547.7	348.25
547.914	358.25
548.127	343.25
548.34	353.25
548.554	352.25
548.767	356.25
548.98	352.25
549.193	350.25
549.407	361.25
549.62	353.25
549.833	387.25
550.046	346.25
550.259	332.25
550.473	367.25
550.686	365.25
550.899	356.25
551.112	349.25
551.325	360.25
551.538	364.25
551.751	349.25
551.964	371.25
552.177	352.25
552.39	347.25
552.603	364.25
552.816	366.25
553.029	355.25
553.242	346.25
553.455	357.25
553.667	367.25
553.88	368.25
554.093	385.25
554.306	375.25
554.519	347.25
554.732	365.25
554.944	346.25
555.157	345.25
555.37	359.25
555.583	347.25
555.795	344.25
556.008	351.25
556.221	344.25
556.433	336.25
556.646	329.25
556.859	311.25
557.071	312.25
557.284	345.25
557.496	337.25
557.709	348.25
557.921	329.25
558.134	292.25
558.346	322.25
558.559	325.25
558.771	310.25
558.984	324.25
559.196	306.25
559.409	317.25
559.621	334.25
559.833	323.25
560.046	317.25
560.258	296.25
560.47	319.25
560.683	297.25
560.895	320.25
561.107	323.25
561.32	323.25
561.532	328.25
561.744	319.25
561.956	305.25
562.168	323.25
562.381	339.25
562.593	343.25
562.805	318.25
563.017	317.25
563.229	324.25
563.441	321.25
563.653	335.25
563.865	338.25
564.077	332.25
564.289	329.25
564.501	333.25
564.713	328.25
564.925	329.25
565.137	359.25
565.349	331.25
565.561	356.25
565.773	327.25
565.985	339.25
566.197	352.25
566.408	357.25
566.62	353.25
566.832	361.25
567.044	367.25
567.255	366.25
567.467	368.25
567.679	396.25
567.891	368.25
568.102	389.25
568.314	382.25
568.526	347.25
568.737	339.25
568.949	356.25
569.161	336.25
569.372	341.25
569.584	326.25
569.795	353.25
570.007	332.25
570.218	348.25
570.43	361.25
570.641	332.25
570.853	311.25
571.064	307.25
571.276	304.25
571.487	291.25
571.698	291.25
571.91	291.25
572.121	310.25
572.333	286.25
572.544	300.25
572.755	292.25
572.966	276.25
573.178	281.25
573.389	289.25
573.6	271.25
573.811	287.25
574.023	294.25
574.234	299.25
574.445	277.25
574.656	279.25
574.867	281.25
575.078	280.25
575.289	279.25
575.501	268.25
575.712	283.25
575.923	276.25
576.134	285.25
576.345	281.25
576.556	264.25
576.767	263.25
576.978	263.25
577.188	285.25
577.399	269.25
577.61	254.25
577.821	271.25
578.032	279.25
578.243	313.25
578.454	549.25
578.665	375.25
578.875	274.25
579.086	254.25
579.297	267.25
579.508	262.25
579.718	257.25
579.929	254.25
580.14	248.25
580.35	255.25
580.561	273.25
580.772	270.25
580.982	250.25
581.193	255.25
581.403	259.25
581.614	273.25
581.825	251.25
582.035	252.25
582.246	268.25
582.456	256.25
582.667	245.25
582.877	238.25
583.087	255.25
583.298	238.25
583.508	221.25
583.719	245.25
583.929	236.25
584.139	247.25
584.35	271.25
584.56	245.25
584.77	236.25
584.981	248.25
585.191	249.25
585.401	240.25
585.611	224.25
585.821	261.25
586.032	245.25
586.242	246.25
586.452	240.25
586.662	229.25
586.872	239.25
587.082	255.25
587.292	235.25
587.502	250.25
587.713	252.25
587.923	221.25
588.133	231.25
588.343	235.25
588.553	232.25
588.762	260.25
588.972	258.25
589.182	343.25
589.392	320.25
589.602	253.25
589.812	292.25
590.022	286.25
590.232	268.25
590.441	253.25
590.651	245.25
590.861	269.25
591.071	257.25
591.281	238.25
591.49	220.25
591.7	230.25
591.91	240.25
592.119	232.25
592.329	235.25
592.539	251.25
592.748	233.25
592.958	254.25
593.167	228.25
593.377	239.25
593.587	249.25
593.796	234.25
594.006	259.25
594.215	248.25
594.424	216.25
594.634	236.25
594.843	249.25
595.053	248.25
595.262	240.25
595.472	240.25
595.681	227.25
595.89	231.25
596.1	259.25
596.309	233.25
596.518	229.25
596.727	242.25
596.937	227.25
597.146	241.25
597.355	238.25
597.564	218.25
597.774	225.25
597.983	239.25
598.192	215.25
598.401	222.25
598.61	217.25
598.819	224.25
599.028	217.25
599.237	224.25
599.446	210.25
599.655	220.25
599.864	221.25
600.073	215.25
600.282	217.25
600.491	236.25
600.7	231.25
600.909	229.25
601.118	201.25
601.327	215.25
601.536	212.25
601.745	227.25
601.953	219.25
602.162	220.25
602.371	201.25
602.58	215.25
602.789	205.25
602.997	217.25
603.206	203.25
603.415	208.25
603.623	208.25
603.832	220.25
604.041	222.25
604.249	196.25
604.458	208.25
604.666	201.25
604.875	219.25
605.084	217.25
605.292	192.25
605.501	201.25
605.709	200.25
605.918	211.25
606.126	203.25
606.334	189.25
606.543	206.25
606.751	209.25
606.96	220.25
607.168	200.25
607.376	199.25
607.585	206.25
607.793	197.25
608.001	198.25
608.21	186.25
608.418	221.25
608.626	211.25
608.834	190.25
609.043	195.25
609.251	214.25
609.459	193.25
609.667	204.25
609.875	207.25
610.083	201.25
610.291	214.25
610.499	207.25
610.707	211.25
610.916	206.25
611.124	205.25
611.332	209.25
611.54	201.25
611.748	200.25
611.955	200.25
612.163	201.25
612.371	217.25
612.579	201.25
612.787	193.25
612.995	186.25
613.203	196.25
613.411	199.25
613.618	187.25
613.826	195.25
614.034	200.25
614.242	214.25
614.449	217.25
614.657	204.25
614.865	188.25
615.072	204.25
615.28	184.25
615.488	195.25
615.695	198.25
615.903	197.25
616.111	190.25
616.318	188.25
616.526	195.25
616.733	200.25
616.941	183.25
617.148	169.25
617.356	189.25
617.563	184.25
617.771	204.25
617.978	189.25
618.185	193.25
618.393	198.25
618.6	206.25
618.807	195.25
619.015	172.25
619.222	201.25
619.429	192.25
619.637	190.25
619.844	172.25
620.051	183.25
620.258	195.25
620.466	179.25
620.673	181.25
620.88	199.25
621.087	191.25
621.294	169.25
621.501	176.25
621.708	184.25
621.915	204.25
622.122	177.25
622.329	183.25
622.536	196.25
622.743	191.25
622.95	187.25
623.157	191.25
623.364	185.25
623.571	187.25
623.778	179.25
623.985	185.25
624.192	172.25
624.399	165.25
624.606	171.25
624.812	178.25
625.019	179.25
625.226	165.25
625.433	188.25
625.639	181.25
625.846	172.25
626.053	177.25
626.259	190.25
626.466	179.25
626.673	181.25
626.879	177.25
627.086	169.25
627.293	172.25
627.499	183.25
627.706	177.25
627.912	179.25
628.119	177.25
628.325	189.25
628.532	177.25
628.738	163.25
628.945	181.25
629.151	160.25
629.357	164.25
629.564	159.25
629.77	170.25
629.976	164.25
630.183	149.25
630.389	162.25
630.595	184.25
630.802	167.25
631.008	164.25
631.214	153.25
631.42	137.25
631.627	165.25
631.833	172.25
632.039	162.25
632.245	163.25
632.451	179.25
632.657	174.25
632.863	163.25
633.069	150.25
633.275	166.25
633.481	150.25
633.688	175.25
633.893	171.25
634.099	164.25
634.305	158.25
634.511	171.25
634.717	156.25
634.923	165.25
635.129	159.25
635.335	160.25
635.541	164.25
635.747	170.25
635.952	147.25
636.158	164.25
636.364	170.25
636.57	162.25
636.775	168.25
636.981	155.25
637.187	159.25
637.392	152.25
637.598	158.25
637.804	166.25
638.009	145.25
638.215	159.25
638.421	141.25
638.626	155.25
638.832	159.25
639.037	154.25
639.243	145.25
639.448	146.25
639.654	149.25
639.859	126.25
640.065	145.25
640.27	158.25
640.475	153.25
640.681	158.25
640.886	143.25
641.091	159.25
641.297	157.25
641.502	157.25
641.707	149.25
641.913	144.25
642.118	147.25
642.323	137.25
642.528	148.25
642.733	157.25
642.939	159.25
643.144	151.25
643.349	145.25
643.554	139.25
643.759	156.25
643.964	152.25
644.169	147.25
644.374	138.25
644.579	145.25
644.784	149.25
644.989	149.25
645.194	147.25
645.399	146.25
645.604	125.25
645.809	140.25
646.014	136.25
646.219	163.25
646.423	136.25
646.628	127.25
646.833	133.25
647.038	143.25
647.243	151.25
647.447	150.25
647.652	163.25
647.857	152.25
648.062	142.25
648.266	149.25
648.471	143.25
648.676	155.25
648.88	161.25
649.085	145.25
649.289	133.25
649.494	157.25
649.698	148.25
649.903	168.25
650.107	155.25
650.312	143.25
650.516	146.25
650.721	154.25
650.925	132.25
651.13	146.25
651.334	155.25
651.539	124.25
651.743	124.25
651.947	131.25
652.152	135.25
652.356	142.25
652.56	124.25
652.764	122.25
652.969	143.25
653.173	128.25
653.377	127.25
653.581	130.25
653.785	116.25
653.99	125.25
654.194	134.25
654.398	129.25
654.602	134.25
654.806	127.25
655.01	143.25
655.214	136.25
655.418	142.25
655.622	120.25
655.826	123.25
656.03	135.25
656.234	125.25
656.438	117.25
656.642	158.25
656.846	129.25
657.049	137.25
657.253	118.25
657.457	99.25
657.661	120.25
657.865	112.25
658.068	107.25
658.272	108.25
658.476	105.25
658.68	102.25
658.883	105.25
659.087	101.25
659.291	103.25
659.494	106.25
659.698	80.25
659.901	89.25
660.105	90.25
660.309	87.25
660.512	98.25
660.716	92.25
660.919	107.25
661.123	92.25
661.326	93.25
661.53	88.25
661.733	95.25
661.936	81.25
662.14	100.25
662.343	95.25
662.546	86.25
662.75	85.25
662.953	99.25
663.156	93.25
663.36	79.25
663.563	85.25
663.766	92.25
663.969	84.25
664.173	93.25
664.376	83.25
664.579	92.25
664.782	92.25
664.985	92.25
665.188	93.25
665.391	88.25
665.594	78.25
665.797	77.25
666	80.25
666.203	84.25
666.406	80.25
666.609	78.25
666.812	79.25
667.015	91.25
667.218	77.25
667.421	87.25
667.624	86.25
667.827	83.25
668.03	78.25
668.232	83.25
668.435	81.25
668.638	69.25
668.841	80.25
669.043	89.25
669.246	88.25
669.449	91.25
669.651	82.25
669.854	80.25
670.057	90.25
670.259	64.25
670.462	70.25
670.665	88.25
670.867	83.25
671.07	85.25
671.272	81.25
671.475	94.25
671.677	79.25
671.88	80.25
672.082	72.25
672.284	96.25
672.487	89.25
672.689	91.25
672.892	84.25
