Data from 1965.PennyLincolnUp.Lamp.En5.5.200Scan.071719.P1._HRD10591_14-07-44-912.txt Node
Date: Thu Jul 18 14:07:44 EDT 2019
User: cochatt
Spectrometer: HR+D1059
Trigger mode: 1
Integration Time (sec): 1.000000E-1
Scans to average: 1
Electric dark correction enabled: true
Nonlinearity correction enabled: false
Boxcar width: 0
XAxis mode: Wavelengths
Number of Pixels in Spectrum: 2048
>>>>>Begin Spectral Data<<<<<
223.165	-17.56
223.4	-17.56
223.635	-17.56
223.869	-28.56
224.104	-11.56
224.338	-6.56
224.573	-18.56
224.808	-0.56
225.042	-9.56
225.277	-4.56
225.511	-1.56
225.746	7.44
225.98	8.44
226.215	7.44
226.449	5.44
226.683	17.44
226.918	24.44
227.152	28.44
227.387	47.44
227.621	41.44
227.856	54.44
228.09	57.44
228.324	57.44
228.559	59.44
228.793	66.44
229.027	90.44
229.262	86.44
229.496	109.44
229.73	94.44
229.964	129.44
230.199	104.44
230.433	110.44
230.667	107.44
230.901	107.44
231.136	91.44
231.37	91.44
231.604	106.44
231.838	103.44
232.072	95.44
232.306	99.44
232.541	106.44
232.775	104.44
233.009	116.44
233.243	107.44
233.477	124.44
233.711	105.44
233.945	104.44
234.179	109.44
234.413	102.44
234.647	103.44
234.881	111.44
235.115	105.44
235.349	104.44
235.583	111.44
235.817	91.44
236.051	94.44
236.285	110.44
236.519	108.44
236.753	113.44
236.987	117.44
237.221	142.44
237.455	180.44
237.689	143.44
237.922	118.44
238.156	136.44
238.39	115.44
238.624	109.44
238.858	99.44
239.091	105.44
239.325	94.44
239.559	118.44
239.793	121.44
240.027	127.44
240.26	119.44
240.494	129.44
240.728	118.44
240.961	126.44
241.195	120.44
241.429	110.44
241.662	100.44
241.896	114.44
242.13	120.44
242.363	118.44
242.597	111.44
242.83	106.44
243.064	121.44
243.298	110.44
243.531	121.44
243.765	118.44
243.998	126.44
244.232	131.44
244.465	122.44
244.699	116.44
244.932	136.44
245.166	125.44
245.399	121.44
245.633	120.44
245.866	121.44
246.099	124.44
246.333	117.44
246.566	122.44
246.8	124.44
247.033	129.44
247.266	133.44
247.5	121.44
247.733	140.44
247.966	141.44
248.2	123.44
248.433	149.44
248.666	147.44
248.899	139.44
249.133	151.44
249.366	158.44
249.599	150.44
249.832	158.44
250.066	140.44
250.299	147.44
250.532	144.44
250.765	147.44
250.998	166.44
251.231	169.44
251.465	157.44
251.698	162.44
251.931	172.44
252.164	150.44
252.397	167.44
252.63	150.44
252.863	166.44
253.096	169.44
253.329	187.44
253.562	192.44
253.795	177.44
254.028	182.44
254.261	179.44
254.494	177.44
254.727	202.44
254.96	211.44
255.193	206.44
255.426	186.44
255.659	179.44
255.892	177.44
256.124	166.44
256.357	176.44
256.59	173.44
256.823	147.44
257.056	188.44
257.289	154.44
257.521	172.44
257.754	174.44
257.987	173.44
258.22	172.44
258.452	158.44
258.685	167.44
258.918	161.44
259.151	158.44
259.383	168.44
259.616	173.44
259.849	188.44
260.081	201.44
260.314	196.44
260.547	203.44
260.779	178.44
261.012	181.44
261.244	166.44
261.477	187.44
261.71	185.44
261.942	178.44
262.175	197.44
262.407	196.44
262.64	155.44
262.872	177.44
263.105	164.44
263.337	182.44
263.57	174.44
263.802	177.44
264.035	176.44
264.267	175.44
264.499	153.44
264.732	183.44
264.964	163.44
265.197	174.44
265.429	171.44
265.661	179.44
265.894	179.44
266.126	178.44
266.358	172.44
266.591	164.44
266.823	179.44
267.055	173.44
267.287	193.44
267.52	185.44
267.752	188.44
267.984	167.44
268.216	171.44
268.448	179.44
268.681	183.44
268.913	177.44
269.145	186.44
269.377	221.44
269.609	215.44
269.841	205.44
270.073	201.44
270.306	231.44
270.538	251.44
270.77	233.44
271.002	224.44
271.234	231.44
271.466	212.44
271.698	241.44
271.93	232.44
272.162	230.44
272.394	240.44
272.626	229.44
272.858	201.44
273.09	213.44
273.322	221.44
273.553	223.44
273.785	206.44
274.017	207.44
274.249	202.44
274.481	199.44
274.713	209.44
274.945	230.44
275.176	200.44
275.408	209.44
275.64	194.44
275.872	190.44
276.104	196.44
276.335	218.44
276.567	202.44
276.799	201.44
277.031	227.44
277.262	227.44
277.494	245.44
277.726	234.44
277.957	230.44
278.189	230.44
278.421	223.44
278.652	209.44
278.884	230.44
279.115	183.44
279.347	210.44
279.579	223.44
279.81	220.44
280.042	214.44
280.273	205.44
280.505	218.44
280.736	219.44
280.968	225.44
281.199	201.44
281.431	206.44
281.662	208.44
281.894	196.44
282.125	206.44
282.356	220.44
282.588	223.44
282.819	227.44
283.051	213.44
283.282	227.44
283.513	228.44
283.745	229.44
283.976	210.44
284.207	217.44
284.439	217.44
284.67	220.44
284.901	216.44
285.132	212.44
285.364	205.44
285.595	227.44
285.826	223.44
286.057	221.44
286.288	218.44
286.52	229.44
286.751	213.44
286.982	214.44
287.213	214.44
287.444	218.44
287.675	236.44
287.906	216.44
288.138	231.44
288.369	225.44
288.6	235.44
288.831	231.44
289.062	225.44
289.293	215.44
289.524	223.44
289.755	212.44
289.986	232.44
290.217	243.44
290.448	224.44
290.679	221.44
290.91	222.44
291.141	219.44
291.371	221.44
291.602	213.44
291.833	222.44
292.064	230.44
292.295	215.44
292.526	234.44
292.757	221.44
292.987	238.44
293.218	230.44
293.449	225.44
293.68	237.44
293.91	213.44
294.141	239.44
294.372	238.44
294.603	214.44
294.833	237.44
295.064	220.44
295.295	227.44
295.525	238.44
295.756	229.44
295.987	238.44
296.217	265.44
296.448	253.44
296.679	237.44
296.909	223.44
297.14	233.44
297.37	235.44
297.601	235.44
297.831	232.44
298.062	259.44
298.292	243.44
298.523	245.44
298.753	242.44
298.984	246.44
299.214	238.44
299.445	230.44
299.675	233.44
299.905	245.44
300.136	260.44
300.366	225.44
300.597	241.44
300.827	254.44
301.057	241.44
301.288	240.44
301.518	252.44
301.748	249.44
301.979	272.44
302.209	255.44
302.439	260.44
302.669	260.44
302.9	244.44
303.13	244.44
303.36	237.44
303.59	249.44
303.82	269.44
304.051	270.44
304.281	254.44
304.511	267.44
304.741	265.44
304.971	269.44
305.201	256.44
305.431	245.44
305.661	260.44
305.891	260.44
306.121	266.44
306.352	261.44
306.582	259.44
306.812	252.44
307.042	263.44
307.272	269.44
307.502	262.44
307.731	248.44
307.961	267.44
308.191	251.44
308.421	267.44
308.651	267.44
308.881	243.44
309.111	273.44
309.341	283.44
309.571	282.44
309.8	271.44
310.03	294.44
310.26	290.44
310.49	277.44
310.72	299.44
310.949	305.44
311.179	299.44
311.409	289.44
311.639	268.44
311.868	293.44
312.098	307.44
312.328	291.44
312.557	321.44
312.787	310.44
313.017	312.44
313.246	308.44
313.476	296.44
313.706	295.44
313.935	305.44
314.165	293.44
314.394	316.44
314.624	309.44
314.853	313.44
315.083	297.44
315.312	308.44
315.542	296.44
315.771	298.44
316.001	277.44
316.23	278.44
316.46	294.44
316.689	293.44
316.919	291.44
317.148	299.44
317.377	296.44
317.607	292.44
317.836	309.44
318.065	292.44
318.295	301.44
318.524	281.44
318.753	277.44
318.983	305.44
319.212	300.44
319.441	300.44
319.67	277.44
319.9	313.44
320.129	294.44
320.358	299.44
320.587	282.44
320.816	293.44
321.046	283.44
321.275	316.44
321.504	311.44
321.733	313.44
321.962	289.44
322.191	314.44
322.42	330.44
322.649	324.44
322.878	339.44
323.108	351.44
323.337	351.44
323.566	378.44
323.795	417.44
324.024	430.44
324.253	537.44
324.482	780.44
324.71	1143.44
324.939	1564.44
325.168	1313.44
325.397	675.44
325.626	485.44
325.855	409.44
326.084	395.44
326.313	384.44
326.542	381.44
326.77	423.44
326.999	509.44
327.228	685.44
327.457	1002.44
327.686	1153.44
327.914	764.44
328.143	531.44
328.372	466.44
328.6	455.44
328.829	419.44
329.058	430.44
329.287	433.44
329.515	417.44
329.744	376.44
329.972	385.44
330.201	395.44
330.43	427.44
330.658	434.44
330.887	455.44
331.115	436.44
331.344	407.44
331.572	383.44
331.801	362.44
332.03	362.44
332.258	354.44
332.486	339.44
332.715	343.44
332.943	357.44
333.172	338.44
333.4	349.44
333.629	355.44
333.857	346.44
334.085	383.44
334.314	366.44
334.542	393.44
334.771	385.44
334.999	372.44
335.227	338.44
335.455	341.44
335.684	346.44
335.912	353.44
336.14	345.44
336.369	346.44
336.597	345.44
336.825	346.44
337.053	310.44
337.281	326.44
337.51	323.44
337.738	334.44
337.966	335.44
338.194	339.44
338.422	346.44
338.65	320.44
338.878	329.44
339.106	318.44
339.334	331.44
339.562	326.44
339.79	316.44
340.018	324.44
340.246	335.44
340.474	350.44
340.702	326.44
340.93	317.44
341.158	316.44
341.386	310.44
341.614	313.44
341.842	332.44
342.07	320.44
342.298	309.44
342.526	316.44
342.754	338.44
342.981	318.44
343.209	314.44
343.437	329.44
343.665	332.44
343.893	341.44
344.12	343.44
344.348	333.44
344.576	337.44
344.804	340.44
345.031	339.44
345.259	331.44
345.487	324.44
345.714	326.44
345.942	336.44
346.17	330.44
346.397	314.44
346.625	329.44
346.853	310.44
347.08	321.44
347.308	311.44
347.535	341.44
347.763	343.44
347.99	329.44
348.218	333.44
348.445	309.44
348.673	327.44
348.9	322.44
349.128	316.44
349.355	323.44
349.583	323.44
349.81	324.44
350.037	313.44
350.265	316.44
350.492	306.44
350.72	280.44
350.947	329.44
351.174	341.44
351.402	343.44
351.629	325.44
351.856	325.44
352.083	310.44
352.311	331.44
352.538	328.44
352.765	335.44
352.992	325.44
353.22	309.44
353.447	331.44
353.674	317.44
353.901	311.44
354.128	291.44
354.355	308.44
354.583	293.44
354.81	300.44
355.037	308.44
355.264	313.44
355.491	294.44
355.718	289.44
355.945	289.44
356.172	285.44
356.399	310.44
356.626	285.44
356.853	285.44
357.08	297.44
357.307	293.44
357.534	294.44
357.761	301.44
357.988	314.44
358.215	303.44
358.441	297.44
358.668	317.44
358.895	313.44
359.122	316.44
359.349	315.44
359.576	333.44
359.802	341.44
360.029	371.44
360.256	366.44
360.483	334.44
360.709	326.44
360.936	341.44
361.163	325.44
361.39	316.44
361.616	320.44
361.843	315.44
362.07	332.44
362.296	310.44
362.523	329.44
362.749	325.44
362.976	320.44
363.203	311.44
363.429	322.44
363.656	332.44
363.882	301.44
364.109	294.44
364.335	312.44
364.562	309.44
364.788	301.44
365.015	309.44
365.241	313.44
365.468	320.44
365.694	323.44
365.92	323.44
366.147	306.44
366.373	305.44
366.599	319.44
366.826	310.44
367.052	317.44
367.278	311.44
367.505	320.44
367.731	313.44
367.957	309.44
368.184	321.44
368.41	308.44
368.636	318.44
368.862	315.44
369.089	305.44
369.315	307.44
369.541	317.44
369.767	314.44
369.993	313.44
370.219	315.44
370.445	316.44
370.672	301.44
370.898	315.44
371.124	305.44
371.35	306.44
371.576	323.44
371.802	306.44
372.028	306.44
372.254	313.44
372.48	300.44
372.706	282.44
372.932	311.44
373.158	293.44
373.384	305.44
373.61	321.44
373.835	326.44
374.061	305.44
374.287	305.44
374.513	303.44
374.739	310.44
374.965	330.44
375.191	314.44
375.416	322.44
375.642	315.44
375.868	325.44
376.094	312.44
376.319	319.44
376.545	303.44
376.771	305.44
376.997	316.44
377.222	284.44
377.448	305.44
377.674	314.44
377.899	310.44
378.125	291.44
378.35	309.44
378.576	298.44
378.802	299.44
379.027	309.44
379.253	319.44
379.478	321.44
379.704	307.44
379.929	317.44
380.155	298.44
380.38	300.44
380.606	315.44
380.831	313.44
381.057	322.44
381.282	315.44
381.507	305.44
381.733	314.44
381.958	310.44
382.184	299.44
382.409	318.44
382.634	318.44
382.86	311.44
383.085	306.44
383.31	316.44
383.535	296.44
383.761	319.44
383.986	312.44
384.211	334.44
384.436	337.44
384.662	323.44
384.887	333.44
385.112	312.44
385.337	317.44
385.562	325.44
385.787	316.44
386.013	345.44
386.238	343.44
386.463	354.44
386.688	339.44
386.913	313.44
387.138	346.44
387.363	330.44
387.588	336.44
387.813	341.44
388.038	334.44
388.263	339.44
388.488	337.44
388.713	335.44
388.938	335.44
389.163	332.44
389.387	330.44
389.612	355.44
389.837	343.44
390.062	308.44
390.287	337.44
390.512	321.44
390.736	323.44
390.961	326.44
391.186	325.44
391.411	358.44
391.636	320.44
391.86	333.44
392.085	348.44
392.31	320.44
392.534	340.44
392.759	337.44
392.984	334.44
393.208	341.44
393.433	335.44
393.658	356.44
393.882	337.44
394.107	344.44
394.331	336.44
394.556	370.44
394.78	321.44
395.005	334.44
395.229	339.44
395.454	339.44
395.678	340.44
395.903	341.44
396.127	375.44
396.352	370.44
396.576	352.44
396.801	348.44
397.025	362.44
397.249	346.44
397.474	351.44
397.698	346.44
397.922	346.44
398.147	389.44
398.371	385.44
398.595	386.44
398.82	353.44
399.044	373.44
399.268	391.44
399.492	396.44
399.717	420.44
399.941	430.44
400.165	443.44
400.389	455.44
400.613	413.44
400.837	393.44
401.062	378.44
401.286	385.44
401.51	383.44
401.734	376.44
401.958	393.44
402.182	379.44
402.406	390.44
402.63	390.44
402.854	374.44
403.078	388.44
403.302	385.44
403.526	386.44
403.75	390.44
403.974	366.44
404.198	371.44
404.422	377.44
404.645	403.44
404.869	379.44
405.093	412.44
405.317	422.44
405.541	448.44
405.765	411.44
405.988	405.44
406.212	428.44
406.436	424.44
406.66	426.44
406.883	426.44
407.107	445.44
407.331	477.44
407.555	515.44
407.778	498.44
408.002	458.44
408.226	426.44
408.449	406.44
408.673	423.44
408.896	429.44
409.12	482.44
409.344	444.44
409.567	406.44
409.791	419.44
410.014	404.44
410.238	418.44
410.461	389.44
410.685	388.44
410.908	414.44
411.132	442.44
411.355	426.44
411.578	421.44
411.802	377.44
412.025	366.44
412.249	393.44
412.472	404.44
412.695	431.44
412.919	411.44
413.142	390.44
413.365	382.44
413.589	394.44
413.812	364.44
414.035	377.44
414.258	369.44
414.482	362.44
414.705	397.44
414.928	383.44
415.151	369.44
415.374	357.44
415.597	357.44
415.821	359.44
416.044	364.44
416.267	356.44
416.49	356.44
416.713	358.44
416.936	361.44
417.159	380.44
417.382	380.44
417.605	376.44
417.828	391.44
418.051	407.44
418.274	390.44
418.497	364.44
418.72	367.44
418.943	360.44
419.166	381.44
419.389	402.44
419.611	380.44
419.834	399.44
420.057	381.44
420.28	384.44
420.503	373.44
420.726	380.44
420.948	379.44
421.171	398.44
421.394	439.44
421.617	399.44
421.839	388.44
422.062	394.44
422.285	395.44
422.507	438.44
422.73	487.44
422.953	437.44
423.175	420.44
423.398	391.44
423.621	395.44
423.843	407.44
424.066	412.44
424.288	403.44
424.511	432.44
424.733	467.44
424.956	510.44
425.178	492.44
425.401	486.44
425.623	505.44
425.846	421.44
426.068	403.44
426.291	422.44
426.513	395.44
426.735	403.44
426.958	458.44
427.18	519.44
427.402	598.44
427.625	638.44
427.847	551.44
428.069	501.44
428.292	460.44
428.514	416.44
428.736	415.44
428.958	382.44
429.181	386.44
429.403	386.44
429.625	373.44
429.847	409.44
430.069	453.44
430.292	464.44
430.514	381.44
430.736	381.44
430.958	393.44
431.18	383.44
431.402	348.44
431.624	376.44
431.846	371.44
432.068	371.44
432.29	367.44
432.512	344.44
432.734	372.44
432.956	370.44
433.178	397.44
433.4	378.44
433.622	373.44
433.844	373.44
434.066	375.44
434.287	361.44
434.509	374.44
434.731	373.44
434.953	374.44
435.175	400.44
435.397	402.44
435.618	416.44
435.84	457.44
436.062	516.44
436.284	535.44
436.505	487.44
436.727	407.44
436.949	404.44
437.17	392.44
437.392	399.44
437.614	403.44
437.835	442.44
438.057	487.44
438.278	570.44
438.5	535.44
438.721	591.44
438.943	572.44
439.165	480.44
439.386	454.44
439.608	435.44
439.829	430.44
440.05	447.44
440.272	469.44
440.493	464.44
440.715	395.44
440.936	377.44
441.158	405.44
441.379	384.44
441.6	407.44
441.822	413.44
442.043	439.44
442.264	521.44
442.486	536.44
442.707	469.44
442.928	419.44
443.149	430.44
443.371	448.44
443.592	491.44
443.813	542.44
444.034	574.44
444.255	464.44
444.476	443.44
444.698	437.44
444.919	421.44
445.14	497.44
445.361	468.44
445.582	446.44
445.803	485.44
446.024	578.44
446.245	550.44
446.466	538.44
446.687	444.44
446.908	403.44
447.129	409.44
447.35	407.44
447.571	381.44
447.792	385.44
448.013	400.44
448.234	411.44
448.455	458.44
448.675	519.44
448.896	591.44
449.117	497.44
449.338	468.44
449.559	553.44
449.779	601.44
450	492.44
450.221	419.44
450.442	405.44
450.662	381.44
450.883	393.44
451.104	417.44
451.324	397.44
451.545	379.44
451.766	384.44
451.986	342.44
452.207	361.44
452.428	352.44
452.648	339.44
452.869	349.44
453.089	361.44
453.31	377.44
453.53	359.44
453.751	366.44
453.971	363.44
454.192	374.44
454.412	369.44
454.633	337.44
454.853	334.44
455.073	344.44
455.294	374.44
455.514	416.44
455.734	409.44
455.955	346.44
456.175	349.44
456.395	326.44
456.616	325.44
456.836	322.44
457.056	318.44
457.276	331.44
457.497	326.44
457.717	335.44
457.937	342.44
458.157	332.44
458.377	347.44
458.598	358.44
458.818	391.44
459.038	463.44
459.258	466.44
459.478	394.44
459.698	371.44
459.918	358.44
460.138	347.44
460.358	375.44
460.578	372.44
460.798	374.44
461.018	360.44
461.238	365.44
461.458	355.44
461.678	370.44
461.898	365.44
462.118	389.44
462.338	399.44
462.558	391.44
462.777	379.44
462.997	398.44
463.217	413.44
463.437	406.44
463.657	397.44
463.876	396.44
464.096	387.44
464.316	408.44
464.536	392.44
464.755	408.44
464.975	411.44
465.195	441.44
465.414	505.44
465.634	444.44
465.854	395.44
466.073	410.44
466.293	402.44
466.512	373.44
466.732	357.44
466.951	384.44
467.171	358.44
467.391	356.44
467.61	381.44
467.829	390.44
468.049	375.44
468.268	380.44
468.488	363.44
468.707	364.44
468.927	347.44
469.146	358.44
469.365	357.44
469.585	346.44
469.804	374.44
470.023	369.44
470.243	370.44
470.462	349.44
470.681	359.44
470.901	374.44
471.12	373.44
471.339	366.44
471.558	355.44
471.777	368.44
471.997	343.44
472.216	375.44
472.435	379.44
472.654	362.44
472.873	362.44
473.092	371.44
473.311	376.44
473.53	363.44
473.749	376.44
473.968	411.44
474.187	466.44
474.406	506.44
474.625	412.44
474.844	391.44
475.063	373.44
475.282	373.44
475.501	354.44
475.72	365.44
475.939	377.44
476.158	364.44
476.377	388.44
476.596	383.44
476.814	389.44
477.033	381.44
477.252	379.44
477.471	401.44
477.69	417.44
477.908	396.44
478.127	421.44
478.346	381.44
478.564	405.44
478.783	402.44
479.002	385.44
479.22	418.44
479.439	423.44
479.658	466.44
479.876	477.44
480.095	456.44
480.313	463.44
480.532	441.44
480.751	445.44
480.969	459.44
481.188	493.44
481.406	516.44
481.624	475.44
481.843	443.44
482.061	430.44
482.28	434.44
482.498	440.44
482.717	435.44
482.935	436.44
483.153	428.44
483.372	435.44
483.59	437.44
483.808	442.44
484.027	428.44
484.245	425.44
484.463	452.44
484.681	465.44
484.9	446.44
485.118	438.44
485.336	442.44
485.554	469.44
485.772	445.44
485.99	457.44
486.209	439.44
486.427	443.44
486.645	481.44
486.863	481.44
487.081	471.44
487.299	472.44
487.517	468.44
487.735	467.44
487.953	466.44
488.171	463.44
488.389	458.44
488.607	445.44
488.825	471.44
489.043	470.44
489.261	451.44
489.479	455.44
489.696	469.44
489.914	462.44
490.132	471.44
490.35	494.44
490.568	493.44
490.786	462.44
491.003	483.44
491.221	492.44
491.439	527.44
491.657	514.44
491.874	517.44
492.092	534.44
492.31	527.44
492.527	523.44
492.745	522.44
492.963	519.44
493.18	525.44
493.398	525.44
493.615	517.44
493.833	547.44
494.05	528.44
494.268	524.44
494.485	520.44
494.703	545.44
494.92	516.44
495.138	515.44
495.355	525.44
495.573	541.44
495.79	524.44
496.008	525.44
496.225	527.44
496.442	546.44
496.66	541.44
496.877	550.44
497.094	533.44
497.312	537.44
497.529	564.44
497.746	553.44
497.963	567.44
498.181	565.44
498.398	581.44
498.615	589.44
498.832	601.44
499.049	628.44
499.267	612.44
499.484	629.44
499.701	654.44
499.918	651.44
500.135	670.44
500.352	678.44
500.569	677.44
500.786	695.44
501.003	694.44
501.22	674.44
501.437	689.44
501.654	663.44
501.871	669.44
502.088	656.44
502.305	622.44
502.522	592.44
502.739	611.44
502.956	590.44
503.172	561.44
503.389	558.44
503.606	560.44
503.823	555.44
504.04	552.44
504.256	528.44
504.473	534.44
504.69	538.44
504.907	532.44
505.123	509.44
505.34	531.44
505.557	538.44
505.773	531.44
505.99	523.44
506.207	511.44
506.423	518.44
506.64	501.44
506.856	509.44
507.073	508.44
507.289	522.44
507.506	511.44
507.722	532.44
507.939	526.44
508.155	528.44
508.372	487.44
508.588	499.44
508.805	454.44
509.021	490.44
509.238	513.44
509.454	511.44
509.67	492.44
509.887	487.44
510.103	479.44
510.319	501.44
510.536	581.44
510.752	982.44
510.968	797.44
511.184	525.44
511.401	482.44
511.617	476.44
511.833	489.44
512.049	483.44
512.265	456.44
512.481	493.44
512.698	467.44
512.914	450.44
513.13	471.44
513.346	462.44
513.562	455.44
513.778	482.44
513.994	475.44
514.21	487.44
514.426	531.44
514.642	540.44
514.858	551.44
515.074	585.44
515.29	701.44
515.506	1042.44
515.721	840.44
515.937	575.44
516.153	547.44
516.369	505.44
516.585	484.44
516.801	495.44
517.016	514.44
517.232	490.44
517.448	460.44
517.664	479.44
517.879	486.44
518.095	487.44
518.311	469.44
518.527	482.44
518.742	507.44
518.958	469.44
519.173	478.44
519.389	481.44
519.605	467.44
519.82	467.44
520.036	490.44
520.251	506.44
520.467	530.44
520.682	521.44
520.898	545.44
521.113	537.44
521.329	569.44
521.544	640.44
521.76	835.44
521.975	1378.44
522.19	1327.44
522.406	729.44
522.621	541.44
522.836	504.44
523.052	466.44
523.267	458.44
523.482	484.44
523.698	475.44
523.913	427.44
524.128	452.44
524.343	417.44
524.559	412.44
524.774	449.44
524.989	423.44
525.204	438.44
525.419	428.44
525.634	419.44
525.849	410.44
526.064	406.44
526.28	398.44
526.495	388.44
526.71	391.44
526.925	381.44
527.14	392.44
527.355	406.44
527.57	391.44
527.785	396.44
527.999	383.44
528.214	396.44
528.429	411.44
528.644	402.44
528.859	398.44
529.074	399.44
529.289	412.44
529.503	459.44
529.718	453.44
529.933	444.44
530.148	407.44
530.363	407.44
530.577	382.44
530.792	389.44
531.007	392.44
531.221	395.44
531.436	383.44
531.651	381.44
531.865	368.44
532.08	373.44
532.295	375.44
532.509	371.44
532.724	380.44
532.938	388.44
533.153	371.44
533.367	376.44
533.582	388.44
533.796	376.44
534.011	362.44
534.225	376.44
534.44	383.44
534.654	365.44
534.868	363.44
535.083	360.44
535.297	377.44
535.511	392.44
535.726	401.44
535.94	373.44
536.154	378.44
536.369	383.44
536.583	360.44
536.797	345.44
537.011	353.44
537.225	370.44
537.44	356.44
537.654	359.44
537.868	356.44
538.082	377.44
538.296	371.44
538.51	368.44
538.724	359.44
538.938	358.44
539.153	381.44
539.367	374.44
539.581	377.44
539.795	361.44
540.009	381.44
540.222	370.44
540.436	340.44
540.65	377.44
540.864	371.44
541.078	379.44
541.292	363.44
541.506	358.44
541.72	362.44
541.934	359.44
542.147	349.44
542.361	354.44
542.575	357.44
542.789	349.44
543.002	372.44
543.216	364.44
543.43	357.44
543.644	358.44
543.857	369.44
544.071	365.44
544.285	353.44
544.498	363.44
544.712	357.44
544.925	354.44
545.139	364.44
545.352	343.44
545.566	367.44
545.779	355.44
545.993	344.44
546.206	345.44
546.42	359.44
546.633	330.44
546.847	350.44
547.06	367.44
547.274	350.44
547.487	361.44
547.7	339.44
547.914	331.44
548.127	345.44
548.34	356.44
548.554	340.44
548.767	345.44
548.98	351.44
549.193	338.44
549.407	354.44
549.62	347.44
549.833	351.44
550.046	350.44
550.259	352.44
550.473	344.44
550.686	354.44
550.899	334.44
551.112	336.44
551.325	335.44
551.538	335.44
551.751	346.44
551.964	358.44
552.177	335.44
552.39	336.44
552.603	337.44
552.816	357.44
553.029	341.44
553.242	355.44
553.455	348.44
553.667	351.44
553.88	371.44
554.093	344.44
554.306	357.44
554.519	343.44
554.732	329.44
554.944	348.44
555.157	341.44
555.37	332.44
555.583	334.44
555.795	326.44
556.008	329.44
556.221	307.44
556.433	308.44
556.646	328.44
556.859	315.44
557.071	328.44
557.284	318.44
557.496	332.44
557.709	336.44
557.921	311.44
558.134	323.44
558.346	317.44
558.559	317.44
558.771	310.44
558.984	294.44
559.196	289.44
559.409	312.44
559.621	293.44
559.833	323.44
560.046	312.44
560.258	308.44
560.47	315.44
560.683	299.44
560.895	309.44
561.107	297.44
561.32	317.44
561.532	334.44
561.744	320.44
561.956	323.44
562.168	309.44
562.381	311.44
562.593	313.44
562.805	319.44
563.017	323.44
563.229	317.44
563.441	305.44
563.653	317.44
563.865	322.44
564.077	310.44
564.289	317.44
564.501	329.44
564.713	337.44
564.925	318.44
565.137	323.44
565.349	339.44
565.561	336.44
565.773	334.44
565.985	335.44
566.197	339.44
566.408	358.44
566.62	348.44
566.832	353.44
567.044	353.44
567.255	378.44
567.467	359.44
567.679	382.44
567.891	373.44
568.102	359.44
568.314	360.44
568.526	350.44
568.737	350.44
568.949	354.44
569.161	341.44
569.372	313.44
569.584	319.44
569.795	329.44
570.007	322.44
570.218	339.44
570.43	341.44
570.641	288.44
570.853	293.44
571.064	285.44
571.276	316.44
571.487	305.44
571.698	302.44
571.91	303.44
572.121	290.44
572.333	295.44
572.544	308.44
572.755	284.44
572.966	281.44
573.178	305.44
573.389	277.44
573.6	270.44
573.811	282.44
574.023	277.44
574.234	260.44
574.445	274.44
574.656	284.44
574.867	265.44
575.078	296.44
575.289	276.44
575.501	262.44
575.712	273.44
575.923	275.44
576.134	270.44
576.345	248.44
576.556	260.44
576.767	265.44
576.978	265.44
577.188	256.44
577.399	267.44
577.61	270.44
577.821	255.44
578.032	265.44
578.243	306.44
578.454	478.44
578.665	339.44
578.875	261.44
579.086	259.44
579.297	243.44
579.508	237.44
579.718	261.44
579.929	248.44
580.14	245.44
580.35	248.44
580.561	262.44
580.772	244.44
580.982	259.44
581.193	260.44
581.403	246.44
581.614	259.44
581.825	258.44
582.035	247.44
582.246	271.44
582.456	248.44
582.667	241.44
582.877	235.44
583.087	234.44
583.298	249.44
583.508	247.44
583.719	239.44
583.929	258.44
584.139	244.44
584.35	261.44
584.56	245.44
584.77	256.44
584.981	223.44
585.191	251.44
585.401	232.44
585.611	262.44
585.821	250.44
586.032	246.44
586.242	233.44
586.452	232.44
586.662	257.44
586.872	226.44
587.082	245.44
587.292	238.44
587.502	229.44
587.713	235.44
587.923	241.44
588.133	233.44
588.343	233.44
588.553	246.44
588.762	268.44
588.972	276.44
589.182	530.44
589.392	544.44
589.602	325.44
589.812	483.44
590.022	397.44
590.232	258.44
590.441	253.44
590.651	249.44
590.861	251.44
591.071	249.44
591.281	211.44
591.49	222.44
591.7	245.44
591.91	250.44
592.119	238.44
592.329	238.44
592.539	244.44
592.748	247.44
592.958	257.44
593.167	246.44
593.377	246.44
593.587	261.44
593.796	249.44
594.006	247.44
594.215	248.44
594.424	246.44
594.634	227.44
594.843	236.44
595.053	241.44
595.262	220.44
595.472	231.44
595.681	243.44
595.89	228.44
596.1	215.44
596.309	227.44
596.518	220.44
596.727	236.44
596.937	241.44
597.146	229.44
597.355	217.44
597.564	215.44
597.774	226.44
597.983	229.44
598.192	213.44
598.401	230.44
598.61	223.44
598.819	220.44
599.028	209.44
599.237	235.44
599.446	197.44
599.655	214.44
599.864	236.44
600.073	189.44
600.282	228.44
600.491	205.44
600.7	205.44
600.909	210.44
601.118	210.44
601.327	207.44
601.536	201.44
601.745	209.44
601.953	225.44
602.162	203.44
602.371	211.44
602.58	207.44
602.789	217.44
602.997	213.44
603.206	220.44
603.415	214.44
603.623	207.44
603.832	207.44
604.041	203.44
604.249	205.44
604.458	221.44
604.666	199.44
604.875	208.44
605.084	218.44
605.292	210.44
605.501	217.44
605.709	208.44
605.918	198.44
606.126	190.44
606.334	219.44
606.543	205.44
606.751	201.44
606.96	203.44
607.168	205.44
607.376	198.44
607.585	209.44
607.793	188.44
608.001	213.44
608.21	202.44
608.418	202.44
608.626	213.44
608.834	198.44
609.043	217.44
609.251	195.44
609.459	193.44
609.667	197.44
609.875	193.44
610.083	203.44
610.291	215.44
610.499	205.44
610.707	193.44
610.916	202.44
611.124	213.44
611.332	201.44
611.54	200.44
611.748	194.44
611.955	187.44
612.163	198.44
612.371	201.44
612.579	201.44
612.787	187.44
612.995	185.44
613.203	201.44
613.411	197.44
613.618	199.44
613.826	197.44
614.034	212.44
614.242	190.44
614.449	204.44
614.657	201.44
614.865	213.44
615.072	205.44
615.28	193.44
615.488	188.44
615.695	186.44
615.903	205.44
616.111	188.44
616.318	197.44
616.526	196.44
616.733	191.44
616.941	198.44
617.148	187.44
617.356	194.44
617.563	199.44
617.771	203.44
617.978	202.44
618.185	190.44
618.393	197.44
618.6	199.44
618.807	203.44
619.015	198.44
619.222	194.44
619.429	184.44
619.637	199.44
619.844	196.44
620.051	201.44
620.258	187.44
620.466	197.44
620.673	179.44
620.88	182.44
621.087	187.44
621.294	189.44
621.501	168.44
621.708	195.44
621.915	181.44
622.122	178.44
622.329	179.44
622.536	170.44
622.743	183.44
622.95	184.44
623.157	175.44
623.364	178.44
623.571	189.44
623.778	180.44
623.985	185.44
624.192	186.44
624.399	174.44
624.606	191.44
624.812	173.44
625.019	164.44
625.226	172.44
625.433	174.44
625.639	177.44
625.846	187.44
626.053	177.44
626.259	181.44
626.466	175.44
626.673	174.44
626.879	161.44
627.086	158.44
627.293	170.44
627.499	165.44
627.706	170.44
627.912	170.44
628.119	173.44
628.325	167.44
628.532	157.44
628.738	175.44
628.945	174.44
629.151	164.44
629.357	174.44
629.564	180.44
629.77	162.44
629.976	165.44
630.183	175.44
630.389	160.44
630.595	164.44
630.802	169.44
631.008	173.44
631.214	170.44
631.42	152.44
631.627	180.44
631.833	166.44
632.039	165.44
632.245	157.44
632.451	155.44
632.657	161.44
632.863	172.44
633.069	159.44
633.275	150.44
633.481	165.44
633.688	167.44
633.893	154.44
634.099	164.44
634.305	158.44
634.511	157.44
634.717	158.44
634.923	158.44
635.129	157.44
635.335	180.44
635.541	173.44
635.747	153.44
635.952	157.44
636.158	169.44
636.364	166.44
636.57	154.44
636.775	163.44
636.981	160.44
637.187	169.44
637.392	143.44
637.598	151.44
637.804	152.44
638.009	161.44
638.215	168.44
638.421	151.44
638.626	129.44
638.832	145.44
639.037	169.44
639.243	165.44
639.448	158.44
639.654	156.44
639.859	150.44
640.065	144.44
640.27	144.44
640.475	161.44
640.681	143.44
640.886	158.44
641.091	162.44
641.297	149.44
641.502	156.44
641.707	153.44
641.913	163.44
642.118	133.44
642.323	137.44
642.528	140.44
642.733	161.44
642.939	151.44
643.144	155.44
643.349	154.44
643.554	169.44
643.759	156.44
643.964	154.44
644.169	162.44
644.374	157.44
644.579	144.44
644.784	157.44
644.989	147.44
645.194	134.44
645.399	155.44
645.604	153.44
645.809	154.44
646.014	155.44
646.219	140.44
646.423	142.44
646.628	125.44
646.833	146.44
647.038	166.44
647.243	149.44
647.447	164.44
647.652	144.44
647.857	149.44
648.062	156.44
648.266	144.44
648.471	151.44
648.676	158.44
648.88	172.44
649.085	159.44
649.289	148.44
649.494	156.44
649.698	185.44
649.903	157.44
650.107	157.44
650.312	142.44
650.516	162.44
650.721	150.44
650.925	141.44
651.13	129.44
651.334	142.44
651.539	153.44
651.743	141.44
651.947	176.44
652.152	142.44
652.356	150.44
652.56	149.44
652.764	132.44
652.969	146.44
653.173	137.44
653.377	148.44
653.581	127.44
653.785	131.44
653.99	138.44
654.194	144.44
654.398	137.44
654.602	139.44
654.806	136.44
655.01	147.44
655.214	139.44
655.418	137.44
655.622	137.44
655.826	157.44
656.03	132.44
656.234	146.44
656.438	139.44
656.642	141.44
656.846	143.44
657.049	144.44
657.253	125.44
657.457	127.44
657.661	139.44
657.865	132.44
658.068	117.44
658.272	115.44
658.476	107.44
658.68	98.44
658.883	109.44
659.087	117.44
659.291	94.44
659.494	100.44
659.698	111.44
659.901	89.44
660.105	104.44
660.309	92.44
660.512	99.44
660.716	91.44
660.919	71.44
661.123	101.44
661.326	95.44
661.53	98.44
661.733	85.44
661.936	99.44
662.14	86.44
662.343	87.44
662.546	85.44
662.75	102.44
662.953	100.44
663.156	93.44
663.36	78.44
663.563	100.44
663.766	85.44
663.969	97.44
664.173	86.44
664.376	92.44
664.579	95.44
664.782	72.44
664.985	67.44
665.188	85.44
665.391	80.44
665.594	93.44
665.797	69.44
666	84.44
666.203	68.44
666.406	87.44
666.609	86.44
666.812	88.44
667.015	86.44
667.218	76.44
667.421	84.44
667.624	82.44
667.827	74.44
668.03	65.44
668.232	89.44
668.435	88.44
668.638	77.44
668.841	80.44
669.043	73.44
669.246	78.44
669.449	78.44
669.651	80.44
669.854	94.44
670.057	81.44
670.259	73.44
670.462	85.44
670.665	72.44
670.867	90.44
671.07	85.44
671.272	70.44
671.475	74.44
671.677	80.44
671.88	76.44
672.082	75.44
672.284	74.44
672.487	76.44
672.689	83.44
672.892	86.44
