Data from 1966.PennyLincolnUp.Lamp.En5.5.200Scan.071719.P1.Scan2.head_HRD10591_14-17-23-104.txt Node
Date: Thu Jul 18 14:17:23 EDT 2019
User: cochatt
Spectrometer: HR+D1059
Trigger mode: 1
Integration Time (sec): 1.000000E-1
Scans to average: 1
Electric dark correction enabled: true
Nonlinearity correction enabled: false
Boxcar width: 0
XAxis mode: Wavelengths
Number of Pixels in Spectrum: 2048
>>>>>Begin Spectral Data<<<<<
223.165	-13.88
223.4	-13.88
223.635	-13.88
223.869	-20.88
224.104	-26.88
224.338	-2.88
224.573	-10.88
224.808	-15.88
225.042	-7.88
225.277	-11.88
225.511	4.12
225.746	-3.88
225.98	14.12
226.215	18.12
226.449	13.12
226.683	16.12
226.918	16.12
227.152	33.12
227.387	35.12
227.621	34.12
227.856	33.12
228.09	44.12
228.324	46.12
228.559	63.12
228.793	60.12
229.027	106.12
229.262	109.12
229.496	123.12
229.73	141.12
229.964	163.12
230.199	138.12
230.433	108.12
230.667	109.12
230.901	122.12
231.136	114.12
231.37	128.12
231.604	126.12
231.838	121.12
232.072	111.12
232.306	118.12
232.541	104.12
232.775	125.12
233.009	116.12
233.243	113.12
233.477	113.12
233.711	114.12
233.945	126.12
234.179	118.12
234.413	137.12
234.647	129.12
234.881	137.12
235.115	127.12
235.349	124.12
235.583	110.12
235.817	115.12
236.051	120.12
236.285	131.12
236.519	121.12
236.753	139.12
236.987	144.12
237.221	170.12
237.455	218.12
237.689	183.12
237.922	142.12
238.156	141.12
238.39	142.12
238.624	145.12
238.858	143.12
239.091	128.12
239.325	123.12
239.559	123.12
239.793	134.12
240.027	129.12
240.26	125.12
240.494	156.12
240.728	167.12
240.961	151.12
241.195	141.12
241.429	137.12
241.662	144.12
241.896	135.12
242.13	140.12
242.363	117.12
242.597	137.12
242.83	152.12
243.064	142.12
243.298	135.12
243.531	141.12
243.765	134.12
243.998	142.12
244.232	132.12
244.465	143.12
244.699	153.12
244.932	172.12
245.166	146.12
245.399	153.12
245.633	153.12
245.866	147.12
246.099	147.12
246.333	148.12
246.566	156.12
246.8	155.12
247.033	171.12
247.266	169.12
247.5	169.12
247.733	176.12
247.966	165.12
248.2	162.12
248.433	170.12
248.666	178.12
248.899	184.12
249.133	198.12
249.366	218.12
249.599	194.12
249.832	187.12
250.066	177.12
250.299	187.12
250.532	178.12
250.765	205.12
250.998	220.12
251.231	212.12
251.465	195.12
251.698	190.12
251.931	211.12
252.164	186.12
252.397	194.12
252.63	190.12
252.863	208.12
253.096	223.12
253.329	227.12
253.562	218.12
253.795	230.12
254.028	222.12
254.261	225.12
254.494	215.12
254.727	249.12
254.96	279.12
255.193	270.12
255.426	239.12
255.659	232.12
255.892	245.12
256.124	221.12
256.357	233.12
256.59	205.12
256.823	207.12
257.056	208.12
257.289	211.12
257.521	214.12
257.754	218.12
257.987	211.12
258.22	211.12
258.452	204.12
258.685	210.12
258.918	214.12
259.151	200.12
259.383	215.12
259.616	211.12
259.849	223.12
260.081	231.12
260.314	247.12
260.547	259.12
260.779	233.12
261.012	232.12
261.244	235.12
261.477	229.12
261.71	209.12
261.942	210.12
262.175	234.12
262.407	222.12
262.64	213.12
262.872	219.12
263.105	215.12
263.337	216.12
263.57	223.12
263.802	210.12
264.035	217.12
264.267	208.12
264.499	214.12
264.732	200.12
264.964	199.12
265.197	211.12
265.429	220.12
265.661	222.12
265.894	222.12
266.126	207.12
266.358	233.12
266.591	215.12
266.823	215.12
267.055	222.12
267.287	215.12
267.52	231.12
267.752	230.12
267.984	230.12
268.216	215.12
268.448	229.12
268.681	239.12
268.913	259.12
269.145	262.12
269.377	268.12
269.609	273.12
269.841	258.12
270.073	254.12
270.306	280.12
270.538	309.12
270.77	322.12
271.002	284.12
271.234	290.12
271.466	273.12
271.698	295.12
271.93	283.12
272.162	298.12
272.394	313.12
272.626	295.12
272.858	299.12
273.09	289.12
273.322	268.12
273.553	254.12
273.785	266.12
274.017	255.12
274.249	262.12
274.481	267.12
274.713	269.12
274.945	290.12
275.176	266.12
275.408	292.12
275.64	269.12
275.872	279.12
276.104	278.12
276.335	265.12
276.567	282.12
276.799	279.12
277.031	305.12
277.262	327.12
277.494	331.12
277.726	304.12
277.957	308.12
278.189	269.12
278.421	284.12
278.652	272.12
278.884	289.12
279.115	269.12
279.347	260.12
279.579	272.12
279.81	280.12
280.042	279.12
280.273	269.12
280.505	261.12
280.736	268.12
280.968	274.12
281.199	271.12
281.431	299.12
281.662	273.12
281.894	257.12
282.125	265.12
282.356	288.12
282.588	310.12
282.819	312.12
283.051	278.12
283.282	257.12
283.513	271.12
283.745	279.12
283.976	279.12
284.207	282.12
284.439	281.12
284.67	271.12
284.901	281.12
285.132	272.12
285.364	287.12
285.595	281.12
285.826	303.12
286.057	278.12
286.288	292.12
286.52	272.12
286.751	289.12
286.982	301.12
287.213	277.12
287.444	295.12
287.675	276.12
287.906	297.12
288.138	296.12
288.369	284.12
288.6	279.12
288.831	302.12
289.062	303.12
289.293	282.12
289.524	294.12
289.755	307.12
289.986	287.12
290.217	297.12
290.448	274.12
290.679	292.12
290.91	291.12
291.141	295.12
291.371	286.12
291.602	292.12
291.833	294.12
292.064	322.12
292.295	297.12
292.526	297.12
292.757	275.12
292.987	294.12
293.218	319.12
293.449	327.12
293.68	285.12
293.91	281.12
294.141	295.12
294.372	290.12
294.603	309.12
294.833	305.12
295.064	302.12
295.295	293.12
295.525	317.12
295.756	326.12
295.987	301.12
296.217	313.12
296.448	327.12
296.679	321.12
296.909	273.12
297.14	295.12
297.37	299.12
297.601	300.12
297.831	297.12
298.062	298.12
298.292	319.12
298.523	318.12
298.753	313.12
298.984	312.12
299.214	293.12
299.445	309.12
299.675	300.12
299.905	326.12
300.136	316.12
300.366	303.12
300.597	311.12
300.827	319.12
301.057	303.12
301.288	340.12
301.518	333.12
301.748	322.12
301.979	337.12
302.209	332.12
302.439	333.12
302.669	351.12
302.9	340.12
303.13	317.12
303.36	327.12
303.59	337.12
303.82	325.12
304.051	343.12
304.281	330.12
304.511	337.12
304.741	333.12
304.971	340.12
305.201	322.12
305.431	354.12
305.661	321.12
305.891	320.12
306.121	325.12
306.352	329.12
306.582	367.12
306.812	331.12
307.042	332.12
307.272	334.12
307.502	324.12
307.731	352.12
307.961	333.12
308.191	343.12
308.421	331.12
308.651	354.12
308.881	324.12
309.111	334.12
309.341	337.12
309.571	342.12
309.8	351.12
310.03	358.12
310.26	381.12
310.49	357.12
310.72	385.12
310.949	388.12
311.179	411.12
311.409	381.12
311.639	372.12
311.868	366.12
312.098	366.12
312.328	365.12
312.557	395.12
312.787	421.12
313.017	404.12
313.246	415.12
313.476	390.12
313.706	381.12
313.935	384.12
314.165	410.12
314.394	386.12
314.624	390.12
314.853	410.12
315.083	378.12
315.312	383.12
315.542	357.12
315.771	369.12
316.001	387.12
316.23	354.12
316.46	387.12
316.689	385.12
316.919	395.12
317.148	388.12
317.377	385.12
317.607	375.12
317.836	363.12
318.065	383.12
318.295	391.12
318.524	376.12
318.753	364.12
318.983	375.12
319.212	383.12
319.441	391.12
319.67	380.12
319.9	392.12
320.129	377.12
320.358	365.12
320.587	387.12
320.816	409.12
321.046	400.12
321.275	391.12
321.504	395.12
321.733	408.12
321.962	416.12
322.191	397.12
322.42	401.12
322.649	419.12
322.878	446.12
323.108	441.12
323.337	455.12
323.566	485.12
323.795	493.12
324.024	536.12
324.253	606.12
324.482	875.12
324.71	1394.12
324.939	2035.12
325.168	1797.12
325.397	915.12
325.626	614.12
325.855	509.12
326.084	502.12
326.313	473.12
326.542	479.12
326.77	534.12
326.999	602.12
327.228	823.12
327.457	1218.12
327.686	1545.12
327.914	1021.12
328.143	667.12
328.372	581.12
328.6	544.12
328.829	535.12
329.058	572.12
329.287	560.12
329.515	528.12
329.744	492.12
329.972	488.12
330.201	515.12
330.43	519.12
330.658	551.12
330.887	592.12
331.115	562.12
331.344	513.12
331.572	487.12
331.801	473.12
332.03	481.12
332.258	479.12
332.486	454.12
332.715	443.12
332.943	467.12
333.172	472.12
333.4	464.12
333.629	466.12
333.857	488.12
334.085	490.12
334.314	517.12
334.542	523.12
334.771	545.12
334.999	496.12
335.227	496.12
335.455	494.12
335.684	463.12
335.912	462.12
336.14	446.12
336.369	455.12
336.597	464.12
336.825	471.12
337.053	459.12
337.281	459.12
337.51	445.12
337.738	438.12
337.966	457.12
338.194	466.12
338.422	465.12
338.65	455.12
338.878	438.12
339.106	447.12
339.334	429.12
339.562	421.12
339.79	431.12
340.018	453.12
340.246	450.12
340.474	452.12
340.702	440.12
340.93	430.12
341.158	462.12
341.386	438.12
341.614	425.12
341.842	437.12
342.07	453.12
342.298	433.12
342.526	418.12
342.754	416.12
342.981	420.12
343.209	437.12
343.437	427.12
343.665	450.12
343.893	479.12
344.12	452.12
344.348	465.12
344.576	453.12
344.804	450.12
345.031	489.12
345.259	456.12
345.487	451.12
345.714	418.12
345.942	445.12
346.17	427.12
346.397	427.12
346.625	435.12
346.853	441.12
347.08	423.12
347.308	446.12
347.535	450.12
347.763	449.12
347.99	424.12
348.218	455.12
348.445	437.12
348.673	433.12
348.9	418.12
349.128	413.12
349.355	438.12
349.583	419.12
349.81	414.12
350.037	422.12
350.265	418.12
350.492	440.12
350.72	425.12
350.947	447.12
351.174	437.12
351.402	451.12
351.629	446.12
351.856	442.12
352.083	431.12
352.311	453.12
352.538	452.12
352.765	440.12
352.992	429.12
353.22	447.12
353.447	427.12
353.674	439.12
353.901	413.12
354.128	436.12
354.355	419.12
354.583	408.12
354.81	421.12
355.037	416.12
355.264	412.12
355.491	407.12
355.718	407.12
355.945	417.12
356.172	403.12
356.399	398.12
356.626	404.12
356.853	424.12
357.08	416.12
357.307	397.12
357.534	403.12
357.761	426.12
357.988	413.12
358.215	403.12
358.441	400.12
358.668	427.12
358.895	413.12
359.122	407.12
359.349	419.12
359.576	418.12
359.802	438.12
360.029	485.12
360.256	488.12
360.483	465.12
360.709	455.12
360.936	425.12
361.163	449.12
361.39	430.12
361.616	430.12
361.843	434.12
362.07	413.12
362.296	425.12
362.523	421.12
362.749	446.12
362.976	432.12
363.203	429.12
363.429	435.12
363.656	421.12
363.882	417.12
364.109	424.12
364.335	432.12
364.562	439.12
364.788	407.12
365.015	412.12
365.241	405.12
365.468	442.12
365.694	419.12
365.92	422.12
366.147	432.12
366.373	418.12
366.599	416.12
366.826	418.12
367.052	413.12
367.278	418.12
367.505	409.12
367.731	430.12
367.957	437.12
368.184	408.12
368.41	441.12
368.636	419.12
368.862	451.12
369.089	434.12
369.315	411.12
369.541	418.12
369.767	465.12
369.993	428.12
370.219	423.12
370.445	428.12
370.672	412.12
370.898	433.12
371.124	430.12
371.35	437.12
371.576	436.12
371.802	414.12
372.028	444.12
372.254	433.12
372.48	421.12
372.706	421.12
372.932	431.12
373.158	429.12
373.384	424.12
373.61	425.12
373.835	458.12
374.061	433.12
374.287	435.12
374.513	455.12
374.739	424.12
374.965	431.12
375.191	450.12
375.416	427.12
375.642	441.12
375.868	439.12
376.094	440.12
376.319	447.12
376.545	417.12
376.771	439.12
376.997	419.12
377.222	447.12
377.448	425.12
377.674	458.12
377.899	427.12
378.125	416.12
378.35	453.12
378.576	428.12
378.802	427.12
379.027	432.12
379.253	431.12
379.478	433.12
379.704	437.12
379.929	421.12
380.155	425.12
380.38	448.12
380.606	438.12
380.831	425.12
381.057	443.12
381.282	448.12
381.507	440.12
381.733	441.12
381.958	435.12
382.184	450.12
382.409	446.12
382.634	454.12
382.86	447.12
383.085	451.12
383.31	446.12
383.535	464.12
383.761	455.12
383.986	469.12
384.211	455.12
384.436	472.12
384.662	460.12
384.887	443.12
385.112	464.12
385.337	473.12
385.562	452.12
385.787	457.12
386.013	483.12
386.238	487.12
386.463	495.12
386.688	471.12
386.913	496.12
387.138	499.12
387.363	482.12
387.588	472.12
387.813	484.12
388.038	476.12
388.263	483.12
388.488	502.12
388.713	473.12
388.938	479.12
389.163	480.12
389.387	473.12
389.612	483.12
389.837	493.12
390.062	481.12
390.287	485.12
390.512	476.12
390.736	473.12
390.961	465.12
391.186	487.12
391.411	475.12
391.636	492.12
391.86	498.12
392.085	499.12
392.31	496.12
392.534	492.12
392.759	504.12
392.984	496.12
393.208	511.12
393.433	509.12
393.658	514.12
393.882	488.12
394.107	503.12
394.331	491.12
394.556	497.12
394.78	494.12
395.005	511.12
395.229	479.12
395.454	496.12
395.678	509.12
395.903	545.12
396.127	513.12
396.352	540.12
396.576	515.12
396.801	509.12
397.025	498.12
397.249	500.12
397.474	525.12
397.698	515.12
397.922	535.12
398.147	553.12
398.371	529.12
398.595	529.12
398.82	550.12
399.044	579.12
399.268	596.12
399.492	627.12
399.717	648.12
399.941	679.12
400.165	715.12
400.389	707.12
400.613	633.12
400.837	586.12
401.062	589.12
401.286	572.12
401.51	573.12
401.734	555.12
401.958	551.12
402.182	545.12
402.406	580.12
402.63	574.12
402.854	571.12
403.078	594.12
403.302	589.12
403.526	597.12
403.75	577.12
403.974	577.12
404.198	602.12
404.422	595.12
404.645	599.12
404.869	592.12
405.093	623.12
405.317	658.12
405.541	702.12
405.765	651.12
405.988	597.12
406.212	649.12
406.436	633.12
406.66	658.12
406.883	608.12
407.107	654.12
407.331	684.12
407.555	762.12
407.778	749.12
408.002	697.12
408.226	645.12
408.449	651.12
408.673	645.12
408.896	659.12
409.12	732.12
409.344	678.12
409.567	625.12
409.791	602.12
410.014	587.12
410.238	577.12
410.461	590.12
410.685	598.12
410.908	603.12
411.132	657.12
411.355	703.12
411.578	655.12
411.802	599.12
412.025	573.12
412.249	595.12
412.472	616.12
412.695	665.12
412.919	643.12
413.142	600.12
413.365	594.12
413.589	583.12
413.812	567.12
414.035	548.12
414.258	558.12
414.482	560.12
414.705	574.12
414.928	572.12
415.151	538.12
415.374	554.12
415.597	558.12
415.821	542.12
416.044	550.12
416.267	548.12
416.49	555.12
416.713	558.12
416.936	551.12
417.159	558.12
417.382	546.12
417.605	561.12
417.828	578.12
418.051	575.12
418.274	572.12
418.497	549.12
418.72	549.12
418.943	544.12
419.166	572.12
419.389	605.12
419.611	595.12
419.834	586.12
420.057	576.12
420.28	587.12
420.503	577.12
420.726	578.12
420.948	592.12
421.171	637.12
421.394	655.12
421.617	601.12
421.839	569.12
422.062	566.12
422.285	572.12
422.507	644.12
422.73	710.12
422.953	677.12
423.175	640.12
423.398	603.12
423.621	602.12
423.843	607.12
424.066	604.12
424.288	591.12
424.511	613.12
424.733	684.12
424.956	751.12
425.178	738.12
425.401	730.12
425.623	767.12
425.846	658.12
426.068	637.12
426.291	614.12
426.513	595.12
426.735	594.12
426.958	647.12
427.18	746.12
427.402	905.12
427.625	969.12
427.847	842.12
428.069	738.12
428.292	663.12
428.514	624.12
428.736	573.12
428.958	596.12
429.181	590.12
429.403	560.12
429.625	541.12
429.847	627.12
430.069	679.12
430.292	687.12
430.514	589.12
430.736	578.12
430.958	586.12
431.18	561.12
431.402	540.12
431.624	529.12
431.846	554.12
432.068	535.12
432.29	525.12
432.512	535.12
432.734	541.12
432.956	562.12
433.178	568.12
433.4	556.12
433.622	526.12
433.844	544.12
434.066	528.12
434.287	523.12
434.509	529.12
434.731	554.12
434.953	568.12
435.175	587.12
435.397	624.12
435.618	602.12
435.84	664.12
436.062	749.12
436.284	849.12
436.505	715.12
436.727	613.12
436.949	581.12
437.17	565.12
437.392	575.12
437.614	581.12
437.835	614.12
438.057	710.12
438.278	795.12
438.5	806.12
438.721	869.12
438.943	861.12
439.165	691.12
439.386	627.12
439.608	625.12
439.829	617.12
440.05	641.12
440.272	688.12
440.493	650.12
440.715	603.12
440.936	584.12
441.158	575.12
441.379	573.12
441.6	598.12
441.822	583.12
442.043	638.12
442.264	742.12
442.486	781.12
442.707	648.12
442.928	634.12
443.149	649.12
443.371	662.12
443.592	680.12
443.813	804.12
444.034	892.12
444.255	718.12
444.476	652.12
444.698	611.12
444.919	632.12
445.14	729.12
445.361	681.12
445.582	686.12
445.803	713.12
446.024	832.12
446.245	820.12
446.466	747.12
446.687	649.12
446.908	608.12
447.129	584.12
447.35	579.12
447.571	569.12
447.792	549.12
448.013	576.12
448.234	608.12
448.455	629.12
448.675	747.12
448.896	879.12
449.117	750.12
449.338	688.12
449.559	846.12
449.779	943.12
450	750.12
450.221	630.12
450.442	578.12
450.662	535.12
450.883	543.12
451.104	589.12
451.324	567.12
451.545	554.12
451.766	528.12
451.986	497.12
452.207	509.12
452.428	485.12
452.648	514.12
452.869	536.12
453.089	503.12
453.31	537.12
453.53	520.12
453.751	502.12
453.971	531.12
454.192	536.12
454.412	529.12
454.633	491.12
454.853	506.12
455.073	511.12
455.294	521.12
455.514	605.12
455.734	589.12
455.955	502.12
456.175	482.12
456.395	465.12
456.616	486.12
456.836	498.12
457.056	483.12
457.276	478.12
457.497	485.12
457.717	470.12
457.937	473.12
458.157	477.12
458.377	488.12
458.598	536.12
458.818	596.12
459.038	657.12
459.258	671.12
459.478	575.12
459.698	552.12
459.918	530.12
460.138	532.12
460.358	539.12
460.578	556.12
460.798	554.12
461.018	573.12
461.238	551.12
461.458	551.12
461.678	544.12
461.898	561.12
462.118	542.12
462.338	586.12
462.558	565.12
462.777	576.12
462.997	589.12
463.217	623.12
463.437	639.12
463.657	619.12
463.876	606.12
464.096	587.12
464.316	599.12
464.536	604.12
464.755	611.12
464.975	607.12
465.195	645.12
465.414	676.12
465.634	627.12
465.854	588.12
466.073	562.12
466.293	544.12
466.512	543.12
466.732	526.12
466.951	540.12
467.171	523.12
467.391	521.12
467.61	539.12
467.829	578.12
468.049	555.12
468.268	548.12
468.488	516.12
468.707	495.12
468.927	521.12
469.146	507.12
469.365	533.12
469.585	511.12
469.804	498.12
470.023	551.12
470.243	522.12
470.462	551.12
470.681	542.12
470.901	558.12
471.12	528.12
471.339	557.12
471.558	536.12
471.777	526.12
471.997	535.12
472.216	543.12
472.435	554.12
472.654	547.12
472.873	518.12
473.092	518.12
473.311	545.12
473.53	553.12
473.749	548.12
473.968	585.12
474.187	698.12
474.406	711.12
474.625	577.12
474.844	541.12
475.063	530.12
475.282	530.12
475.501	538.12
475.72	561.12
475.939	538.12
476.158	555.12
476.377	566.12
476.596	570.12
476.814	565.12
477.033	567.12
477.252	542.12
477.471	558.12
477.69	583.12
477.908	592.12
478.127	589.12
478.346	591.12
478.564	588.12
478.783	592.12
479.002	600.12
479.22	613.12
479.439	630.12
479.658	631.12
479.876	645.12
480.095	668.12
480.313	685.12
480.532	712.12
480.751	655.12
480.969	670.12
481.188	703.12
481.406	735.12
481.624	691.12
481.843	645.12
482.061	633.12
482.28	634.12
482.498	627.12
482.717	651.12
482.935	631.12
483.153	622.12
483.372	627.12
483.59	620.12
483.808	631.12
484.027	625.12
484.245	613.12
484.463	632.12
484.681	633.12
484.9	632.12
485.118	666.12
485.336	649.12
485.554	637.12
485.772	649.12
485.99	631.12
486.209	677.12
486.427	665.12
486.645	659.12
486.863	691.12
487.081	681.12
487.299	663.12
487.517	690.12
487.735	660.12
487.953	667.12
488.171	685.12
488.389	674.12
488.607	674.12
488.825	678.12
489.043	699.12
489.261	695.12
489.479	679.12
489.696	668.12
489.914	667.12
490.132	682.12
490.35	719.12
490.568	729.12
490.786	734.12
491.003	717.12
491.221	719.12
491.439	729.12
491.657	757.12
491.874	773.12
492.092	774.12
492.31	749.12
492.527	801.12
492.745	811.12
492.963	794.12
493.18	787.12
493.398	799.12
493.615	825.12
493.833	785.12
494.05	801.12
494.268	790.12
494.485	791.12
494.703	808.12
494.92	790.12
495.138	783.12
495.355	782.12
495.573	787.12
495.79	805.12
496.008	813.12
496.225	796.12
496.442	779.12
496.66	796.12
496.877	795.12
497.094	791.12
497.312	785.12
497.529	828.12
497.746	841.12
497.963	855.12
498.181	877.12
498.398	867.12
498.615	866.12
498.832	937.12
499.049	902.12
499.267	977.12
499.484	979.12
499.701	1036.12
499.918	1048.12
500.135	1100.12
500.352	1146.12
500.569	1174.12
500.786	1187.12
501.003	1154.12
501.22	1135.12
501.437	1116.12
501.654	1053.12
501.871	1064.12
502.088	1016.12
502.305	956.12
502.522	949.12
502.739	897.12
502.956	889.12
503.172	849.12
503.389	853.12
503.606	843.12
503.823	818.12
504.04	837.12
504.256	795.12
504.473	840.12
504.69	805.12
504.907	801.12
505.123	800.12
505.34	810.12
505.557	764.12
505.773	803.12
505.99	775.12
506.207	734.12
506.423	789.12
506.64	738.12
506.856	746.12
507.073	752.12
507.289	746.12
507.506	730.12
507.722	716.12
507.939	751.12
508.155	717.12
508.372	725.12
508.588	696.12
508.805	719.12
509.021	729.12
509.238	735.12
509.454	721.12
509.67	690.12
509.887	716.12
510.103	705.12
510.319	724.12
510.536	791.12
510.752	1235.12
510.968	1027.12
511.184	723.12
511.401	689.12
511.617	668.12
511.833	677.12
512.049	646.12
512.265	682.12
512.481	688.12
512.698	671.12
512.914	688.12
513.13	688.12
513.346	689.12
513.562	644.12
513.778	685.12
513.994	675.12
514.21	675.12
514.426	714.12
514.642	725.12
514.858	781.12
515.074	802.12
515.29	886.12
515.506	1223.12
515.721	1074.12
515.937	777.12
516.153	731.12
516.369	726.12
516.585	719.12
516.801	703.12
517.016	719.12
517.232	713.12
517.448	714.12
517.664	720.12
517.879	703.12
518.095	722.12
518.311	700.12
518.527	699.12
518.742	703.12
518.958	701.12
519.173	702.12
519.389	668.12
519.605	670.12
519.82	679.12
520.036	690.12
520.251	693.12
520.467	717.12
520.682	730.12
520.898	697.12
521.113	755.12
521.329	775.12
521.544	835.12
521.76	977.12
521.975	1569.12
522.19	1533.12
522.406	935.12
522.621	736.12
522.836	680.12
523.052	675.12
523.267	649.12
523.482	625.12
523.698	623.12
523.913	620.12
524.128	614.12
524.343	615.12
524.559	574.12
524.774	594.12
524.989	615.12
525.204	603.12
525.419	605.12
525.634	591.12
525.849	579.12
526.064	584.12
526.28	586.12
526.495	572.12
526.71	584.12
526.925	569.12
527.14	568.12
527.355	575.12
527.57	574.12
527.785	545.12
527.999	564.12
528.214	559.12
528.429	563.12
528.644	555.12
528.859	553.12
529.074	571.12
529.289	572.12
529.503	634.12
529.718	622.12
529.933	571.12
530.148	571.12
530.363	542.12
530.577	577.12
530.792	543.12
531.007	531.12
531.221	558.12
531.436	559.12
531.651	551.12
531.865	536.12
532.08	557.12
532.295	570.12
532.509	541.12
532.724	533.12
532.938	543.12
533.153	538.12
533.367	532.12
533.582	539.12
533.796	529.12
534.011	539.12
534.225	537.12
534.44	522.12
534.654	522.12
534.868	552.12
535.083	535.12
535.297	535.12
535.511	545.12
535.726	557.12
535.94	550.12
536.154	563.12
536.369	539.12
536.583	516.12
536.797	543.12
537.011	517.12
537.225	505.12
537.44	507.12
537.654	499.12
537.868	526.12
538.082	530.12
538.296	523.12
538.51	524.12
538.724	534.12
538.938	518.12
539.153	518.12
539.367	510.12
539.581	534.12
539.795	531.12
540.009	481.12
540.222	504.12
540.436	517.12
540.65	502.12
540.864	530.12
541.078	531.12
541.292	534.12
541.506	501.12
541.72	501.12
541.934	505.12
542.147	529.12
542.361	511.12
542.575	506.12
542.789	488.12
543.002	504.12
543.216	501.12
543.43	521.12
543.644	511.12
543.857	531.12
544.071	517.12
544.285	527.12
544.498	516.12
544.712	525.12
544.925	502.12
545.139	501.12
545.352	528.12
545.566	517.12
545.779	513.12
545.993	515.12
546.206	518.12
546.42	529.12
546.633	498.12
546.847	499.12
547.06	491.12
547.274	496.12
547.487	477.12
547.7	482.12
547.914	486.12
548.127	491.12
548.34	483.12
548.554	509.12
548.767	498.12
548.98	494.12
549.193	508.12
549.407	521.12
549.62	519.12
549.833	496.12
550.046	485.12
550.259	477.12
550.473	475.12
550.686	523.12
550.899	501.12
551.112	511.12
551.325	496.12
551.538	471.12
551.751	482.12
551.964	488.12
552.177	492.12
552.39	498.12
552.603	489.12
552.816	512.12
553.029	494.12
553.242	521.12
553.455	498.12
553.667	513.12
553.88	513.12
554.093	510.12
554.306	504.12
554.519	503.12
554.732	479.12
554.944	495.12
555.157	496.12
555.37	472.12
555.583	482.12
555.795	482.12
556.008	469.12
556.221	463.12
556.433	473.12
556.646	469.12
556.859	451.12
557.071	443.12
557.284	448.12
557.496	445.12
557.709	453.12
557.921	457.12
558.134	454.12
558.346	459.12
558.559	460.12
558.771	441.12
558.984	423.12
559.196	423.12
559.409	462.12
559.621	445.12
559.833	457.12
560.046	444.12
560.258	423.12
560.47	441.12
560.683	431.12
560.895	460.12
561.107	440.12
561.32	401.12
561.532	427.12
561.744	454.12
561.956	420.12
562.168	442.12
562.381	429.12
562.593	437.12
562.805	447.12
563.017	427.12
563.229	446.12
563.441	432.12
563.653	464.12
563.865	434.12
564.077	462.12
564.289	457.12
564.501	455.12
564.713	452.12
564.925	467.12
565.137	481.12
565.349	475.12
565.561	488.12
565.773	507.12
565.985	502.12
566.197	514.12
566.408	522.12
566.62	537.12
566.832	558.12
567.044	581.12
567.255	567.12
567.467	577.12
567.679	579.12
567.891	581.12
568.102	589.12
568.314	577.12
568.526	550.12
568.737	540.12
568.949	528.12
569.161	493.12
569.372	489.12
569.584	477.12
569.795	456.12
570.007	473.12
570.218	475.12
570.43	484.12
570.641	454.12
570.853	444.12
571.064	454.12
571.276	461.12
571.487	432.12
571.698	423.12
571.91	419.12
572.121	439.12
572.333	418.12
572.544	396.12
572.755	403.12
572.966	400.12
573.178	415.12
573.389	385.12
573.6	402.12
573.811	387.12
574.023	397.12
574.234	389.12
574.445	391.12
574.656	380.12
574.867	394.12
575.078	379.12
575.289	403.12
575.501	392.12
575.712	373.12
575.923	389.12
576.134	383.12
576.345	372.12
576.556	377.12
576.767	411.12
576.978	371.12
577.188	362.12
577.399	361.12
577.61	368.12
577.821	381.12
578.032	365.12
578.243	389.12
578.454	600.12
578.665	467.12
578.875	391.12
579.086	359.12
579.297	350.12
579.508	365.12
579.718	353.12
579.929	369.12
580.14	357.12
580.35	360.12
580.561	347.12
580.772	354.12
580.982	341.12
581.193	351.12
581.403	339.12
581.614	351.12
581.825	351.12
582.035	358.12
582.246	352.12
582.456	357.12
582.667	367.12
582.877	353.12
583.087	354.12
583.298	349.12
583.508	349.12
583.719	338.12
583.929	350.12
584.139	349.12
584.35	349.12
584.56	346.12
584.77	342.12
584.981	332.12
585.191	344.12
585.401	340.12
585.611	328.12
585.821	349.12
586.032	339.12
586.242	348.12
586.452	330.12
586.662	338.12
586.872	316.12
587.082	340.12
587.292	336.12
587.502	343.12
587.713	342.12
587.923	359.12
588.133	352.12
588.343	342.12
588.553	335.12
588.762	334.12
588.972	329.12
589.182	357.12
589.392	351.12
589.602	331.12
589.812	334.12
590.022	347.12
590.232	335.12
590.441	345.12
590.651	323.12
590.861	342.12
591.071	354.12
591.281	346.12
591.49	320.12
591.7	323.12
591.91	324.12
592.119	337.12
592.329	345.12
592.539	348.12
592.748	354.12
592.958	346.12
593.167	357.12
593.377	359.12
593.587	370.12
593.796	375.12
594.006	368.12
594.215	345.12
594.424	359.12
594.634	351.12
594.843	339.12
595.053	357.12
595.262	344.12
595.472	342.12
595.681	330.12
595.89	331.12
596.1	352.12
596.309	344.12
596.518	314.12
596.727	324.12
596.937	335.12
597.146	309.12
597.355	339.12
597.564	309.12
597.774	325.12
597.983	294.12
598.192	317.12
598.401	311.12
598.61	307.12
598.819	313.12
599.028	300.12
599.237	302.12
599.446	313.12
599.655	295.12
599.864	289.12
600.073	290.12
600.282	293.12
600.491	301.12
600.7	314.12
600.909	291.12
601.118	285.12
601.327	305.12
601.536	302.12
601.745	295.12
601.953	269.12
602.162	308.12
602.371	272.12
602.58	285.12
602.789	297.12
602.997	287.12
603.206	313.12
603.415	284.12
603.623	279.12
603.832	303.12
604.041	266.12
604.249	275.12
604.458	287.12
604.666	276.12
604.875	273.12
605.084	269.12
605.292	286.12
605.501	279.12
605.709	288.12
605.918	275.12
606.126	299.12
606.334	277.12
606.543	279.12
606.751	284.12
606.96	293.12
607.168	281.12
607.376	292.12
607.585	294.12
607.793	278.12
608.001	296.12
608.21	271.12
608.418	279.12
608.626	250.12
608.834	277.12
609.043	272.12
609.251	287.12
609.459	281.12
609.667	267.12
609.875	282.12
610.083	272.12
610.291	282.12
610.499	269.12
610.707	284.12
610.916	289.12
611.124	274.12
611.332	264.12
611.54	273.12
611.748	282.12
611.955	277.12
612.163	264.12
612.371	264.12
612.579	287.12
612.787	275.12
612.995	276.12
613.203	272.12
613.411	255.12
613.618	279.12
613.826	262.12
614.034	261.12
614.242	275.12
614.449	268.12
614.657	273.12
614.865	267.12
615.072	271.12
615.28	267.12
615.488	258.12
615.695	254.12
615.903	265.12
616.111	259.12
616.318	271.12
616.526	270.12
616.733	277.12
616.941	267.12
617.148	261.12
617.356	262.12
617.563	259.12
617.771	258.12
617.978	265.12
618.185	261.12
618.393	259.12
618.6	262.12
618.807	269.12
619.015	267.12
619.222	270.12
619.429	244.12
619.637	258.12
619.844	247.12
620.051	262.12
620.258	250.12
620.466	231.12
620.673	233.12
620.88	266.12
621.087	247.12
621.294	253.12
621.501	261.12
621.708	240.12
621.915	258.12
622.122	258.12
622.329	235.12
622.536	251.12
622.743	225.12
622.95	233.12
623.157	234.12
623.364	250.12
623.571	254.12
623.778	235.12
623.985	238.12
624.192	226.12
624.399	214.12
624.606	236.12
624.812	225.12
625.019	234.12
625.226	254.12
625.433	245.12
625.639	227.12
625.846	240.12
626.053	221.12
626.259	238.12
626.466	227.12
626.673	240.12
626.879	216.12
627.086	230.12
627.293	222.12
627.499	239.12
627.706	204.12
627.912	238.12
628.119	227.12
628.325	224.12
628.532	225.12
628.738	224.12
628.945	244.12
629.151	215.12
629.357	206.12
629.564	217.12
629.77	223.12
629.976	207.12
630.183	223.12
630.389	228.12
630.595	207.12
630.802	204.12
631.008	222.12
631.214	219.12
631.42	220.12
631.627	213.12
631.833	216.12
632.039	209.12
632.245	213.12
632.451	201.12
632.657	200.12
632.863	193.12
633.069	219.12
633.275	231.12
633.481	219.12
633.688	217.12
633.893	224.12
634.099	209.12
634.305	204.12
634.511	201.12
634.717	193.12
634.923	191.12
635.129	200.12
635.335	187.12
635.541	201.12
635.747	214.12
635.952	198.12
636.158	199.12
636.364	209.12
636.57	203.12
636.775	208.12
636.981	198.12
637.187	214.12
637.392	206.12
637.598	200.12
637.804	183.12
638.009	193.12
638.215	202.12
638.421	200.12
638.626	198.12
638.832	197.12
639.037	174.12
639.243	197.12
639.448	194.12
639.654	197.12
639.859	194.12
640.065	198.12
640.27	201.12
640.475	211.12
640.681	194.12
640.886	205.12
641.091	209.12
641.297	209.12
641.502	197.12
641.707	174.12
641.913	199.12
642.118	185.12
642.323	200.12
642.528	187.12
642.733	190.12
642.939	178.12
643.144	185.12
643.349	179.12
643.554	191.12
643.759	192.12
643.964	165.12
644.169	191.12
644.374	195.12
644.579	174.12
644.784	169.12
644.989	173.12
645.194	161.12
645.399	194.12
645.604	191.12
645.809	203.12
646.014	189.12
646.219	190.12
646.423	185.12
646.628	186.12
646.833	175.12
647.038	194.12
647.243	185.12
647.447	182.12
647.652	182.12
647.857	163.12
648.062	175.12
648.266	177.12
648.471	182.12
648.676	188.12
648.88	186.12
649.085	173.12
649.289	176.12
649.494	199.12
649.698	201.12
649.903	194.12
650.107	189.12
650.312	184.12
650.516	198.12
650.721	167.12
650.925	190.12
651.13	165.12
651.334	176.12
651.539	147.12
651.743	171.12
651.947	170.12
652.152	170.12
652.356	154.12
652.56	172.12
652.764	157.12
652.969	157.12
653.173	167.12
653.377	157.12
653.581	141.12
653.785	139.12
653.99	151.12
654.194	157.12
654.398	152.12
654.602	157.12
654.806	151.12
655.01	169.12
655.214	158.12
655.418	141.12
655.622	139.12
655.826	145.12
656.03	145.12
656.234	154.12
656.438	152.12
656.642	151.12
656.846	147.12
657.049	132.12
657.253	142.12
657.457	145.12
657.661	144.12
657.865	120.12
658.068	112.12
658.272	111.12
658.476	116.12
658.68	119.12
658.883	121.12
659.087	103.12
659.291	86.12
659.494	102.12
659.698	111.12
659.901	122.12
660.105	109.12
660.309	103.12
660.512	95.12
660.716	100.12
660.919	84.12
661.123	106.12
661.326	110.12
661.53	104.12
661.733	92.12
661.936	92.12
662.14	87.12
662.343	105.12
662.546	87.12
662.75	96.12
662.953	94.12
663.156	85.12
663.36	85.12
663.563	87.12
663.766	96.12
663.969	76.12
664.173	88.12
664.376	86.12
664.579	89.12
664.782	106.12
664.985	90.12
665.188	89.12
665.391	86.12
665.594	87.12
665.797	85.12
666	107.12
666.203	82.12
666.406	90.12
666.609	86.12
666.812	90.12
667.015	94.12
667.218	93.12
667.421	80.12
667.624	91.12
667.827	87.12
668.03	81.12
668.232	87.12
668.435	88.12
668.638	75.12
668.841	99.12
669.043	88.12
669.246	82.12
669.449	73.12
669.651	97.12
669.854	90.12
670.057	84.12
670.259	88.12
670.462	93.12
670.665	85.12
670.867	78.12
671.07	75.12
671.272	89.12
671.475	84.12
671.677	104.12
671.88	95.12
672.082	83.12
672.284	90.12
672.487	83.12
672.689	80.12
672.892	105.12
