Data from 1966.PennyLincolnUp.Lamp.En5.5.200Scan.071719.P1._HRD10591_14-15-17-938.txt Node
Date: Thu Jul 18 14:15:17 EDT 2019
User: cochatt
Spectrometer: HR+D1059
Trigger mode: 1
Integration Time (sec): 1.000000E-1
Scans to average: 1
Electric dark correction enabled: true
Nonlinearity correction enabled: false
Boxcar width: 0
XAxis mode: Wavelengths
Number of Pixels in Spectrum: 2048
>>>>>Begin Spectral Data<<<<<
223.165	1.44
223.4	1.44
223.635	1.44
223.869	5.44
224.104	-22.56
224.338	-11.56
224.573	-12.56
224.808	-11.56
225.042	-14.56
225.277	-15.56
225.511	-1.56
225.746	-2.56
225.98	-3.56
226.215	0.44
226.449	15.44
226.683	31.44
226.918	15.44
227.152	26.44
227.387	36.44
227.621	47.44
227.856	55.44
228.09	41.44
228.324	24.44
228.559	47.44
228.793	65.44
229.027	60.44
229.262	90.44
229.496	89.44
229.73	93.44
229.964	121.44
230.199	100.44
230.433	80.44
230.667	85.44
230.901	83.44
231.136	72.44
231.37	102.44
231.604	90.44
231.838	80.44
232.072	97.44
232.306	77.44
232.541	79.44
232.775	112.44
233.009	85.44
233.243	92.44
233.477	99.44
233.711	91.44
233.945	91.44
234.179	96.44
234.413	86.44
234.647	92.44
234.881	91.44
235.115	101.44
235.349	99.44
235.583	114.44
235.817	96.44
236.051	100.44
236.285	100.44
236.519	87.44
236.753	89.44
236.987	119.44
237.221	133.44
237.455	130.44
237.689	122.44
237.922	114.44
238.156	100.44
238.39	90.44
238.624	93.44
238.858	96.44
239.091	96.44
239.325	87.44
239.559	106.44
239.793	110.44
240.027	120.44
240.26	104.44
240.494	106.44
240.728	101.44
240.961	115.44
241.195	106.44
241.429	110.44
241.662	94.44
241.896	96.44
242.13	103.44
242.363	90.44
242.597	92.44
242.83	105.44
243.064	95.44
243.298	92.44
243.531	93.44
243.765	112.44
243.998	93.44
244.232	104.44
244.465	111.44
244.699	105.44
244.932	97.44
245.166	112.44
245.399	97.44
245.633	111.44
245.866	113.44
246.099	104.44
246.333	114.44
246.566	118.44
246.8	113.44
247.033	105.44
247.266	108.44
247.5	102.44
247.733	110.44
247.966	128.44
248.2	114.44
248.433	103.44
248.666	116.44
248.899	134.44
249.133	129.44
249.366	125.44
249.599	138.44
249.832	117.44
250.066	126.44
250.299	121.44
250.532	120.44
250.765	132.44
250.998	149.44
251.231	147.44
251.465	128.44
251.698	117.44
251.931	125.44
252.164	125.44
252.397	113.44
252.63	124.44
252.863	146.44
253.096	153.44
253.329	141.44
253.562	147.44
253.795	130.44
254.028	135.44
254.261	143.44
254.494	139.44
254.727	178.44
254.96	173.44
255.193	160.44
255.426	143.44
255.659	150.44
255.892	144.44
256.124	153.44
256.357	149.44
256.59	148.44
256.823	136.44
257.056	120.44
257.289	124.44
257.521	136.44
257.754	137.44
257.987	135.44
258.22	132.44
258.452	134.44
258.685	125.44
258.918	145.44
259.151	129.44
259.383	141.44
259.616	141.44
259.849	140.44
260.081	144.44
260.314	169.44
260.547	155.44
260.779	151.44
261.012	148.44
261.244	132.44
261.477	144.44
261.71	124.44
261.942	141.44
262.175	156.44
262.407	139.44
262.64	145.44
262.872	144.44
263.105	136.44
263.337	128.44
263.57	135.44
263.802	129.44
264.035	140.44
264.267	138.44
264.499	134.44
264.732	142.44
264.964	134.44
265.197	144.44
265.429	149.44
265.661	152.44
265.894	144.44
266.126	135.44
266.358	134.44
266.591	138.44
266.823	138.44
267.055	137.44
267.287	142.44
267.52	140.44
267.752	128.44
267.984	156.44
268.216	145.44
268.448	144.44
268.681	152.44
268.913	165.44
269.145	155.44
269.377	172.44
269.609	161.44
269.841	158.44
270.073	172.44
270.306	181.44
270.538	178.44
270.77	190.44
271.002	192.44
271.234	190.44
271.466	189.44
271.698	181.44
271.93	183.44
272.162	176.44
272.394	178.44
272.626	170.44
272.858	163.44
273.09	156.44
273.322	156.44
273.553	157.44
273.785	153.44
274.017	157.44
274.249	155.44
274.481	149.44
274.713	143.44
274.945	157.44
275.176	149.44
275.408	157.44
275.64	147.44
275.872	164.44
276.104	166.44
276.335	159.44
276.567	166.44
276.799	183.44
277.031	192.44
277.262	194.44
277.494	180.44
277.726	180.44
277.957	167.44
278.189	142.44
278.421	167.44
278.652	168.44
278.884	160.44
279.115	162.44
279.347	151.44
279.579	164.44
279.81	143.44
280.042	152.44
280.273	169.44
280.505	151.44
280.736	156.44
280.968	181.44
281.199	157.44
281.431	178.44
281.662	157.44
281.894	168.44
282.125	164.44
282.356	182.44
282.588	190.44
282.819	186.44
283.051	162.44
283.282	159.44
283.513	149.44
283.745	161.44
283.976	150.44
284.207	181.44
284.439	170.44
284.67	174.44
284.901	166.44
285.132	182.44
285.364	165.44
285.595	149.44
285.826	154.44
286.057	178.44
286.288	160.44
286.52	160.44
286.751	178.44
286.982	154.44
287.213	177.44
287.444	167.44
287.675	176.44
287.906	159.44
288.138	169.44
288.369	169.44
288.6	174.44
288.831	163.44
289.062	163.44
289.293	168.44
289.524	169.44
289.755	180.44
289.986	176.44
290.217	182.44
290.448	173.44
290.679	174.44
290.91	163.44
291.141	172.44
291.371	170.44
291.602	184.44
291.833	184.44
292.064	181.44
292.295	181.44
292.526	173.44
292.757	180.44
292.987	175.44
293.218	169.44
293.449	176.44
293.68	158.44
293.91	185.44
294.141	172.44
294.372	168.44
294.603	172.44
294.833	169.44
295.064	180.44
295.295	180.44
295.525	163.44
295.756	179.44
295.987	184.44
296.217	186.44
296.448	204.44
296.679	197.44
296.909	169.44
297.14	169.44
297.37	161.44
297.601	174.44
297.831	167.44
298.062	172.44
298.292	169.44
298.523	181.44
298.753	171.44
298.984	187.44
299.214	163.44
299.445	189.44
299.675	195.44
299.905	181.44
300.136	198.44
300.366	178.44
300.597	183.44
300.827	186.44
301.057	196.44
301.288	175.44
301.518	202.44
301.748	184.44
301.979	184.44
302.209	195.44
302.439	212.44
302.669	195.44
302.9	169.44
303.13	182.44
303.36	198.44
303.59	193.44
303.82	199.44
304.051	179.44
304.281	189.44
304.511	197.44
304.741	195.44
304.971	188.44
305.201	180.44
305.431	188.44
305.661	177.44
305.891	186.44
306.121	185.44
306.352	193.44
306.582	193.44
306.812	178.44
307.042	199.44
307.272	167.44
307.502	180.44
307.731	210.44
307.961	198.44
308.191	186.44
308.421	171.44
308.651	186.44
308.881	195.44
309.111	202.44
309.341	200.44
309.571	202.44
309.8	224.44
310.03	213.44
310.26	211.44
310.49	204.44
310.72	208.44
310.949	233.44
311.179	228.44
311.409	203.44
311.639	197.44
311.868	209.44
312.098	189.44
312.328	211.44
312.557	224.44
312.787	233.44
313.017	242.44
313.246	222.44
313.476	205.44
313.706	207.44
313.935	214.44
314.165	231.44
314.394	249.44
314.624	226.44
314.853	214.44
315.083	213.44
315.312	200.44
315.542	202.44
315.771	217.44
316.001	213.44
316.23	217.44
316.46	189.44
316.689	195.44
316.919	212.44
317.148	219.44
317.377	220.44
317.607	216.44
317.836	216.44
318.065	212.44
318.295	214.44
318.524	211.44
318.753	193.44
318.983	216.44
319.212	200.44
319.441	199.44
319.67	233.44
319.9	203.44
320.129	197.44
320.358	198.44
320.587	211.44
320.816	203.44
321.046	204.44
321.275	240.44
321.504	227.44
321.733	220.44
321.962	223.44
322.191	236.44
322.42	242.44
322.649	242.44
322.878	241.44
323.108	261.44
323.337	268.44
323.566	275.44
323.795	273.44
324.024	324.44
324.253	388.44
324.482	560.44
324.71	826.44
324.939	1116.44
325.168	888.44
325.397	449.44
325.626	326.44
325.855	291.44
326.084	270.44
326.313	270.44
326.542	269.44
326.77	303.44
326.999	357.44
327.228	481.44
327.457	698.44
327.686	817.44
327.914	521.44
328.143	392.44
328.372	346.44
328.6	330.44
328.829	308.44
329.058	321.44
329.287	321.44
329.515	294.44
329.744	280.44
329.972	282.44
330.201	299.44
330.43	328.44
330.658	344.44
330.887	368.44
331.115	336.44
331.344	281.44
331.572	251.44
331.801	271.44
332.03	278.44
332.258	243.44
332.486	236.44
332.715	246.44
332.943	261.44
333.172	252.44
333.4	235.44
333.629	267.44
333.857	271.44
334.085	283.44
334.314	291.44
334.542	310.44
334.771	318.44
334.999	270.44
335.227	268.44
335.455	241.44
335.684	234.44
335.912	242.44
336.14	233.44
336.369	242.44
336.597	237.44
336.825	238.44
337.053	236.44
337.281	227.44
337.51	241.44
337.738	248.44
337.966	236.44
338.194	221.44
338.422	233.44
338.65	227.44
338.878	235.44
339.106	209.44
339.334	229.44
339.562	225.44
339.79	237.44
340.018	221.44
340.246	223.44
340.474	241.44
340.702	231.44
340.93	214.44
341.158	207.44
341.386	227.44
341.614	229.44
341.842	235.44
342.07	242.44
342.298	212.44
342.526	231.44
342.754	205.44
342.981	228.44
343.209	246.44
343.437	234.44
343.665	237.44
343.893	230.44
344.12	228.44
344.348	226.44
344.576	231.44
344.804	260.44
345.031	242.44
345.259	247.44
345.487	237.44
345.714	238.44
345.942	216.44
346.17	226.44
346.397	221.44
346.625	226.44
346.853	236.44
347.08	244.44
347.308	241.44
347.535	229.44
347.763	217.44
347.99	224.44
348.218	229.44
348.445	240.44
348.673	237.44
348.9	225.44
349.128	236.44
349.355	219.44
349.583	229.44
349.81	209.44
350.037	226.44
350.265	224.44
350.492	208.44
350.72	214.44
350.947	218.44
351.174	223.44
351.402	221.44
351.629	231.44
351.856	244.44
352.083	232.44
352.311	235.44
352.538	230.44
352.765	234.44
352.992	234.44
353.22	227.44
353.447	217.44
353.674	235.44
353.901	214.44
354.128	206.44
354.355	205.44
354.583	218.44
354.81	216.44
355.037	223.44
355.264	210.44
355.491	212.44
355.718	216.44
355.945	207.44
356.172	217.44
356.399	214.44
356.626	202.44
356.853	200.44
357.08	214.44
357.307	203.44
357.534	209.44
357.761	212.44
357.988	209.44
358.215	207.44
358.441	197.44
358.668	198.44
358.895	204.44
359.122	208.44
359.349	215.44
359.576	206.44
359.802	227.44
360.029	254.44
360.256	264.44
360.483	252.44
360.709	224.44
360.936	226.44
361.163	219.44
361.39	217.44
361.616	221.44
361.843	222.44
362.07	215.44
362.296	214.44
362.523	231.44
362.749	215.44
362.976	227.44
363.203	209.44
363.429	206.44
363.656	203.44
363.882	219.44
364.109	224.44
364.335	224.44
364.562	211.44
364.788	201.44
365.015	207.44
365.241	210.44
365.468	224.44
365.694	215.44
365.92	216.44
366.147	222.44
366.373	219.44
366.599	199.44
366.826	212.44
367.052	201.44
367.278	224.44
367.505	217.44
367.731	226.44
367.957	214.44
368.184	205.44
368.41	216.44
368.636	218.44
368.862	222.44
369.089	230.44
369.315	193.44
369.541	195.44
369.767	204.44
369.993	198.44
370.219	219.44
370.445	208.44
370.672	209.44
370.898	206.44
371.124	208.44
371.35	210.44
371.576	228.44
371.802	203.44
372.028	189.44
372.254	206.44
372.48	210.44
372.706	200.44
372.932	199.44
373.158	210.44
373.384	206.44
373.61	219.44
373.835	203.44
374.061	228.44
374.287	215.44
374.513	205.44
374.739	196.44
374.965	205.44
375.191	205.44
375.416	206.44
375.642	206.44
375.868	203.44
376.094	192.44
376.319	185.44
376.545	209.44
376.771	202.44
376.997	203.44
377.222	196.44
377.448	211.44
377.674	189.44
377.899	207.44
378.125	194.44
378.35	221.44
378.576	205.44
378.802	205.44
379.027	195.44
379.253	200.44
379.478	177.44
379.704	199.44
379.929	201.44
380.155	205.44
380.38	210.44
380.606	225.44
380.831	210.44
381.057	223.44
381.282	217.44
381.507	203.44
381.733	218.44
381.958	207.44
382.184	221.44
382.409	224.44
382.634	190.44
382.86	220.44
383.085	212.44
383.31	205.44
383.535	223.44
383.761	216.44
383.986	198.44
384.211	222.44
384.436	213.44
384.662	223.44
384.887	208.44
385.112	224.44
385.337	203.44
385.562	218.44
385.787	234.44
386.013	245.44
386.238	233.44
386.463	199.44
386.688	209.44
386.913	213.44
387.138	227.44
387.363	224.44
387.588	226.44
387.813	216.44
388.038	213.44
388.263	237.44
388.488	234.44
388.713	222.44
388.938	216.44
389.163	229.44
389.387	237.44
389.612	216.44
389.837	217.44
390.062	219.44
390.287	210.44
390.512	217.44
390.736	217.44
390.961	209.44
391.186	229.44
391.411	214.44
391.636	229.44
391.86	221.44
392.085	217.44
392.31	222.44
392.534	234.44
392.759	227.44
392.984	240.44
393.208	216.44
393.433	209.44
393.658	234.44
393.882	218.44
394.107	213.44
394.331	221.44
394.556	232.44
394.78	226.44
395.005	231.44
395.229	210.44
395.454	240.44
395.678	222.44
395.903	234.44
396.127	237.44
396.352	238.44
396.576	221.44
396.801	231.44
397.025	225.44
397.249	244.44
397.474	216.44
397.698	232.44
397.922	250.44
398.147	237.44
398.371	256.44
398.595	244.44
398.82	249.44
399.044	241.44
399.268	261.44
399.492	278.44
399.717	296.44
399.941	298.44
400.165	308.44
400.389	305.44
400.613	290.44
400.837	260.44
401.062	251.44
401.286	245.44
401.51	243.44
401.734	243.44
401.958	252.44
402.182	277.44
402.406	261.44
402.63	268.44
402.854	258.44
403.078	258.44
403.302	247.44
403.526	256.44
403.75	260.44
403.974	260.44
404.198	255.44
404.422	263.44
404.645	270.44
404.869	251.44
405.093	292.44
405.317	300.44
405.541	289.44
405.765	264.44
405.988	264.44
406.212	283.44
406.436	304.44
406.66	298.44
406.883	299.44
407.107	266.44
407.331	289.44
407.555	335.44
407.778	334.44
408.002	311.44
408.226	278.44
408.449	256.44
408.673	282.44
408.896	288.44
409.12	313.44
409.344	288.44
409.567	269.44
409.791	256.44
410.014	247.44
410.238	262.44
410.461	258.44
410.685	268.44
410.908	270.44
411.132	276.44
411.355	282.44
411.578	269.44
411.802	249.44
412.025	276.44
412.249	280.44
412.472	247.44
412.695	291.44
412.919	298.44
413.142	263.44
413.365	257.44
413.589	269.44
413.812	260.44
414.035	249.44
414.258	236.44
414.482	235.44
414.705	248.44
414.928	251.44
415.151	252.44
415.374	251.44
415.597	211.44
415.821	241.44
416.044	245.44
416.267	245.44
416.49	252.44
416.713	254.44
416.936	229.44
417.159	263.44
417.382	271.44
417.605	241.44
417.828	244.44
418.051	262.44
418.274	259.44
418.497	260.44
418.72	250.44
418.943	263.44
419.166	253.44
419.389	277.44
419.611	265.44
419.834	257.44
420.057	262.44
420.28	276.44
420.503	233.44
420.726	262.44
420.948	276.44
421.171	282.44
421.394	290.44
421.617	267.44
421.839	250.44
422.062	256.44
422.285	276.44
422.507	295.44
422.73	322.44
422.953	312.44
423.175	296.44
423.398	266.44
423.621	287.44
423.843	286.44
424.066	278.44
424.288	289.44
424.511	260.44
424.733	308.44
424.956	339.44
425.178	303.44
425.401	321.44
425.623	312.44
425.846	304.44
426.068	258.44
426.291	276.44
426.513	269.44
426.735	283.44
426.958	297.44
427.18	334.44
427.402	380.44
427.625	446.44
427.847	361.44
428.069	324.44
428.292	298.44
428.514	255.44
428.736	263.44
428.958	248.44
429.181	246.44
429.403	250.44
429.625	258.44
429.847	273.44
430.069	299.44
430.292	299.44
430.514	250.44
430.736	256.44
430.958	257.44
431.18	243.44
431.402	229.44
431.624	230.44
431.846	259.44
432.068	250.44
432.29	217.44
432.512	250.44
432.734	253.44
432.956	237.44
433.178	236.44
433.4	251.44
433.622	248.44
433.844	229.44
434.066	234.44
434.287	252.44
434.509	241.44
434.731	247.44
434.953	246.44
435.175	267.44
435.397	280.44
435.618	272.44
435.84	306.44
436.062	338.44
436.284	357.44
436.505	299.44
436.727	258.44
436.949	260.44
437.17	259.44
437.392	261.44
437.614	252.44
437.835	296.44
438.057	341.44
438.278	362.44
438.5	357.44
438.721	370.44
438.943	363.44
439.165	286.44
439.386	294.44
439.608	288.44
439.829	285.44
440.05	297.44
440.272	312.44
440.493	317.44
440.715	284.44
440.936	272.44
441.158	251.44
441.379	250.44
441.6	263.44
441.822	280.44
442.043	296.44
442.264	352.44
442.486	363.44
442.707	305.44
442.928	260.44
443.149	306.44
443.371	304.44
443.592	317.44
443.813	358.44
444.034	370.44
444.255	314.44
444.476	288.44
444.698	278.44
444.919	276.44
445.14	368.44
445.361	318.44
445.582	300.44
445.803	338.44
446.024	382.44
446.245	390.44
446.466	355.44
446.687	276.44
446.908	265.44
447.129	252.44
447.35	266.44
447.571	257.44
447.792	264.44
448.013	256.44
448.234	249.44
448.455	300.44
448.675	351.44
448.896	365.44
449.117	321.44
449.338	307.44
449.559	359.44
449.779	392.44
450	295.44
450.221	271.44
450.442	246.44
450.662	258.44
450.883	262.44
451.104	254.44
451.324	250.44
451.545	246.44
451.766	238.44
451.986	217.44
452.207	233.44
452.428	236.44
452.648	229.44
452.869	236.44
453.089	247.44
453.31	263.44
453.53	235.44
453.751	231.44
453.971	226.44
454.192	228.44
454.412	252.44
454.633	234.44
454.853	222.44
455.073	252.44
455.294	251.44
455.514	276.44
455.734	257.44
455.955	235.44
456.175	236.44
456.395	219.44
456.616	220.44
456.836	218.44
457.056	219.44
457.276	214.44
457.497	219.44
457.717	227.44
457.937	216.44
458.157	215.44
458.377	223.44
458.598	240.44
458.818	292.44
459.038	342.44
459.258	320.44
459.478	264.44
459.698	266.44
459.918	235.44
460.138	237.44
460.358	243.44
460.578	237.44
460.798	223.44
461.018	270.44
461.238	240.44
461.458	247.44
461.678	234.44
461.898	252.44
462.118	232.44
462.338	251.44
462.558	259.44
462.777	234.44
462.997	261.44
463.217	257.44
463.437	251.44
463.657	263.44
463.876	266.44
464.096	253.44
464.316	266.44
464.536	252.44
464.755	259.44
464.975	266.44
465.195	301.44
465.414	343.44
465.634	282.44
465.854	264.44
466.073	249.44
466.293	248.44
466.512	255.44
466.732	249.44
466.951	234.44
467.171	217.44
467.391	225.44
467.61	251.44
467.829	257.44
468.049	243.44
468.268	257.44
468.488	236.44
468.707	240.44
468.927	232.44
469.146	218.44
469.365	222.44
469.585	224.44
469.804	231.44
470.023	230.44
470.243	260.44
470.462	262.44
470.681	273.44
470.901	279.44
471.12	246.44
471.339	254.44
471.558	247.44
471.777	252.44
471.997	256.44
472.216	244.44
472.435	272.44
472.654	274.44
472.873	243.44
473.092	250.44
473.311	228.44
473.53	240.44
473.749	247.44
473.968	278.44
474.187	336.44
474.406	330.44
474.625	272.44
474.844	239.44
475.063	235.44
475.282	246.44
475.501	230.44
475.72	256.44
475.939	238.44
476.158	225.44
476.377	228.44
476.596	243.44
476.814	244.44
477.033	269.44
477.252	242.44
477.471	234.44
477.69	252.44
477.908	244.44
478.127	256.44
478.346	248.44
478.564	250.44
478.783	254.44
479.002	282.44
479.22	272.44
479.439	297.44
479.658	297.44
479.876	295.44
480.095	282.44
480.313	324.44
480.532	301.44
480.751	300.44
480.969	309.44
481.188	352.44
481.406	402.44
481.624	324.44
481.843	284.44
482.061	277.44
482.28	293.44
482.498	270.44
482.717	276.44
482.935	275.44
483.153	268.44
483.372	264.44
483.59	271.44
483.808	285.44
484.027	282.44
484.245	267.44
484.463	270.44
484.681	279.44
484.9	298.44
485.118	278.44
485.336	293.44
485.554	271.44
485.772	307.44
485.99	276.44
486.209	274.44
486.427	305.44
486.645	281.44
486.863	290.44
487.081	314.44
487.299	308.44
487.517	310.44
487.735	299.44
487.953	294.44
488.171	301.44
488.389	308.44
488.607	296.44
488.825	291.44
489.043	321.44
489.261	307.44
489.479	316.44
489.696	301.44
489.914	292.44
490.132	306.44
490.35	314.44
490.568	302.44
490.786	322.44
491.003	322.44
491.221	340.44
491.439	350.44
491.657	371.44
491.874	351.44
492.092	349.44
492.31	338.44
492.527	357.44
492.745	341.44
492.963	334.44
493.18	368.44
493.398	349.44
493.615	388.44
493.833	357.44
494.05	370.44
494.268	350.44
494.485	354.44
494.703	363.44
494.92	376.44
495.138	350.44
495.355	363.44
495.573	348.44
495.79	340.44
496.008	344.44
496.225	347.44
496.442	339.44
496.66	342.44
496.877	348.44
497.094	379.44
497.312	340.44
497.529	357.44
497.746	363.44
497.963	345.44
498.181	384.44
498.398	364.44
498.615	376.44
498.832	385.44
499.049	384.44
499.267	378.44
499.484	400.44
499.701	390.44
499.918	429.44
500.135	460.44
500.352	456.44
500.569	425.44
500.786	441.44
501.003	452.44
501.22	459.44
501.437	430.44
501.654	421.44
501.871	414.44
502.088	428.44
502.305	409.44
502.522	384.44
502.739	372.44
502.956	362.44
503.172	347.44
503.389	344.44
503.606	357.44
503.823	366.44
504.04	354.44
504.256	340.44
504.473	338.44
504.69	348.44
504.907	338.44
505.123	342.44
505.34	322.44
505.557	347.44
505.773	317.44
505.99	332.44
506.207	329.44
506.423	327.44
506.64	323.44
506.856	326.44
507.073	334.44
507.289	318.44
507.506	332.44
507.722	338.44
507.939	345.44
508.155	355.44
508.372	309.44
508.588	305.44
508.805	301.44
509.021	296.44
509.238	332.44
509.454	318.44
509.67	312.44
509.887	315.44
510.103	321.44
510.319	330.44
510.536	418.44
510.752	804.44
510.968	587.44
511.184	332.44
511.401	302.44
511.617	315.44
511.833	322.44
512.049	295.44
512.265	309.44
512.481	304.44
512.698	278.44
512.914	304.44
513.13	299.44
513.346	298.44
513.562	289.44
513.778	293.44
513.994	315.44
514.21	318.44
514.426	326.44
514.642	345.44
514.858	373.44
515.074	393.44
515.29	516.44
515.506	857.44
515.721	664.44
515.937	371.44
516.153	334.44
516.369	319.44
516.585	316.44
516.801	308.44
517.016	305.44
517.232	316.44
517.448	319.44
517.664	307.44
517.879	304.44
518.095	311.44
518.311	292.44
518.527	299.44
518.742	279.44
518.958	291.44
519.173	292.44
519.389	278.44
519.605	290.44
519.82	309.44
520.036	316.44
520.251	338.44
520.467	340.44
520.682	319.44
520.898	332.44
521.113	353.44
521.329	390.44
521.544	456.44
521.76	621.44
521.975	1178.44
522.19	1148.44
522.406	547.44
522.621	343.44
522.836	310.44
523.052	326.44
523.267	308.44
523.482	281.44
523.698	276.44
523.913	267.44
524.128	271.44
524.343	268.44
524.559	259.44
524.774	254.44
524.989	259.44
525.204	280.44
525.419	272.44
525.634	256.44
525.849	242.44
526.064	244.44
526.28	241.44
526.495	252.44
526.71	261.44
526.925	257.44
527.14	253.44
527.355	252.44
527.57	247.44
527.785	247.44
527.999	259.44
528.214	243.44
528.429	232.44
528.644	242.44
528.859	231.44
529.074	231.44
529.289	277.44
529.503	340.44
529.718	304.44
529.933	276.44
530.148	246.44
530.363	251.44
530.577	241.44
530.792	252.44
531.007	244.44
531.221	229.44
531.436	237.44
531.651	232.44
531.865	245.44
532.08	246.44
532.295	242.44
532.509	243.44
532.724	236.44
532.938	237.44
533.153	243.44
533.367	252.44
533.582	236.44
533.796	219.44
534.011	212.44
534.225	230.44
534.44	225.44
534.654	250.44
534.868	221.44
535.083	245.44
535.297	240.44
535.511	256.44
535.726	263.44
535.94	231.44
536.154	219.44
536.369	230.44
536.583	225.44
536.797	228.44
537.011	222.44
537.225	231.44
537.44	215.44
537.654	226.44
537.868	229.44
538.082	222.44
538.296	218.44
538.51	221.44
538.724	231.44
538.938	242.44
539.153	230.44
539.367	249.44
539.581	232.44
539.795	246.44
540.009	217.44
540.222	234.44
540.436	235.44
540.65	227.44
540.864	227.44
541.078	237.44
541.292	254.44
541.506	245.44
541.72	234.44
541.934	232.44
542.147	238.44
542.361	226.44
542.575	232.44
542.789	234.44
543.002	216.44
543.216	230.44
543.43	235.44
543.644	230.44
543.857	233.44
544.071	220.44
544.285	222.44
544.498	240.44
544.712	221.44
544.925	225.44
545.139	228.44
545.352	238.44
545.566	219.44
545.779	215.44
545.993	242.44
546.206	225.44
546.42	236.44
546.633	231.44
546.847	213.44
547.06	222.44
547.274	225.44
547.487	229.44
547.7	232.44
547.914	204.44
548.127	221.44
548.34	213.44
548.554	216.44
548.767	230.44
548.98	219.44
549.193	217.44
549.407	214.44
549.62	221.44
549.833	220.44
550.046	224.44
550.259	222.44
550.473	227.44
550.686	221.44
550.899	206.44
551.112	216.44
551.325	214.44
551.538	221.44
551.751	219.44
551.964	216.44
552.177	205.44
552.39	210.44
552.603	213.44
552.816	214.44
553.029	224.44
553.242	219.44
553.455	232.44
553.667	226.44
553.88	229.44
554.093	220.44
554.306	229.44
554.519	234.44
554.732	204.44
554.944	203.44
555.157	222.44
555.37	210.44
555.583	210.44
555.795	203.44
556.008	200.44
556.221	205.44
556.433	204.44
556.646	210.44
556.859	213.44
557.071	188.44
557.284	209.44
557.496	199.44
557.709	196.44
557.921	203.44
558.134	200.44
558.346	202.44
558.559	212.44
558.771	188.44
558.984	202.44
559.196	183.44
559.409	189.44
559.621	204.44
559.833	193.44
560.046	179.44
560.258	205.44
560.47	195.44
560.683	209.44
560.895	200.44
561.107	195.44
561.32	195.44
561.532	193.44
561.744	192.44
561.956	205.44
562.168	186.44
562.381	194.44
562.593	203.44
562.805	190.44
563.017	191.44
563.229	190.44
563.441	188.44
563.653	193.44
563.865	192.44
564.077	202.44
564.289	210.44
564.501	205.44
564.713	201.44
564.925	214.44
565.137	218.44
565.349	198.44
565.561	201.44
565.773	206.44
565.985	225.44
566.197	213.44
566.408	218.44
566.62	232.44
566.832	211.44
567.044	226.44
567.255	231.44
567.467	234.44
567.679	243.44
567.891	238.44
568.102	238.44
568.314	229.44
568.526	224.44
568.737	226.44
568.949	232.44
569.161	188.44
569.372	193.44
569.584	201.44
569.795	197.44
570.007	200.44
570.218	229.44
570.43	224.44
570.641	188.44
570.853	193.44
571.064	193.44
571.276	190.44
571.487	187.44
571.698	194.44
571.91	184.44
572.121	190.44
572.333	197.44
572.544	200.44
572.755	181.44
572.966	179.44
573.178	179.44
573.389	166.44
573.6	172.44
573.811	177.44
574.023	160.44
574.234	174.44
574.445	172.44
574.656	182.44
574.867	170.44
575.078	178.44
575.289	189.44
575.501	172.44
575.712	177.44
575.923	165.44
576.134	176.44
576.345	165.44
576.556	171.44
576.767	182.44
576.978	178.44
577.188	173.44
577.399	176.44
577.61	185.44
577.821	158.44
578.032	169.44
578.243	195.44
578.454	373.44
578.665	246.44
578.875	170.44
579.086	167.44
579.297	166.44
579.508	171.44
579.718	165.44
579.929	184.44
580.14	170.44
580.35	172.44
580.561	163.44
580.772	160.44
580.982	155.44
581.193	169.44
581.403	161.44
581.614	164.44
581.825	161.44
582.035	155.44
582.246	167.44
582.456	160.44
582.667	155.44
582.877	176.44
583.087	160.44
583.298	164.44
583.508	172.44
583.719	172.44
583.929	157.44
584.139	156.44
584.35	156.44
584.56	155.44
584.77	167.44
584.981	152.44
585.191	159.44
585.401	171.44
585.611	171.44
585.821	182.44
586.032	163.44
586.242	149.44
586.452	154.44
586.662	147.44
586.872	154.44
587.082	166.44
587.292	160.44
587.502	153.44
587.713	155.44
587.923	160.44
588.133	152.44
588.343	153.44
588.553	150.44
588.762	155.44
588.972	157.44
589.182	163.44
589.392	163.44
589.602	164.44
589.812	164.44
590.022	165.44
590.232	161.44
590.441	149.44
590.651	142.44
590.861	138.44
591.071	161.44
591.281	164.44
591.49	153.44
591.7	153.44
591.91	151.44
592.119	163.44
592.329	147.44
592.539	164.44
592.748	166.44
592.958	162.44
593.167	179.44
593.377	174.44
593.587	175.44
593.796	155.44
594.006	155.44
594.215	155.44
594.424	174.44
594.634	176.44
594.843	148.44
595.053	152.44
595.262	154.44
595.472	166.44
595.681	153.44
595.89	162.44
596.1	153.44
596.309	135.44
596.518	163.44
596.727	157.44
596.937	149.44
597.146	138.44
597.355	143.44
597.564	135.44
597.774	140.44
597.983	150.44
598.192	167.44
598.401	142.44
598.61	152.44
598.819	135.44
599.028	147.44
599.237	165.44
599.446	140.44
599.655	144.44
599.864	147.44
600.073	137.44
600.282	157.44
600.491	171.44
600.7	148.44
600.909	149.44
601.118	148.44
601.327	143.44
601.536	141.44
601.745	146.44
601.953	162.44
602.162	145.44
602.371	148.44
602.58	139.44
602.789	134.44
602.997	146.44
603.206	149.44
603.415	142.44
603.623	148.44
603.832	143.44
604.041	134.44
604.249	144.44
604.458	149.44
604.666	128.44
604.875	134.44
605.084	158.44
605.292	148.44
605.501	156.44
605.709	134.44
605.918	142.44
606.126	146.44
606.334	134.44
606.543	153.44
606.751	136.44
606.96	140.44
607.168	131.44
607.376	132.44
607.585	138.44
607.793	141.44
608.001	130.44
608.21	148.44
608.418	126.44
608.626	127.44
608.834	133.44
609.043	123.44
609.251	151.44
609.459	147.44
609.667	146.44
609.875	158.44
610.083	152.44
610.291	150.44
610.499	156.44
610.707	113.44
610.916	138.44
611.124	141.44
611.332	149.44
611.54	162.44
611.748	142.44
611.955	148.44
612.163	136.44
612.371	148.44
612.579	139.44
612.787	133.44
612.995	155.44
613.203	132.44
613.411	137.44
613.618	156.44
613.826	152.44
614.034	145.44
614.242	137.44
614.449	135.44
614.657	142.44
614.865	136.44
615.072	145.44
615.28	141.44
615.488	147.44
615.695	145.44
615.903	128.44
616.111	140.44
616.318	141.44
616.526	139.44
616.733	139.44
616.941	147.44
617.148	149.44
617.356	154.44
617.563	141.44
617.771	145.44
617.978	150.44
618.185	144.44
618.393	141.44
618.6	130.44
618.807	146.44
619.015	142.44
619.222	125.44
619.429	122.44
619.637	127.44
619.844	144.44
620.051	138.44
620.258	132.44
620.466	132.44
620.673	133.44
620.88	138.44
621.087	141.44
621.294	132.44
621.501	126.44
621.708	126.44
621.915	140.44
622.122	136.44
622.329	145.44
622.536	144.44
622.743	121.44
622.95	142.44
623.157	138.44
623.364	121.44
623.571	132.44
623.778	132.44
623.985	138.44
624.192	146.44
624.399	130.44
624.606	128.44
624.812	126.44
625.019	133.44
625.226	147.44
625.433	136.44
625.639	130.44
625.846	134.44
626.053	139.44
626.259	134.44
626.466	140.44
626.673	133.44
626.879	150.44
627.086	141.44
627.293	129.44
627.499	134.44
627.706	140.44
627.912	132.44
628.119	133.44
628.325	133.44
628.532	136.44
628.738	125.44
628.945	134.44
629.151	134.44
629.357	132.44
629.564	141.44
629.77	109.44
629.976	110.44
630.183	128.44
630.389	129.44
630.595	126.44
630.802	123.44
631.008	129.44
631.214	123.44
631.42	131.44
631.627	117.44
631.833	130.44
632.039	132.44
632.245	129.44
632.451	128.44
632.657	129.44
632.863	129.44
633.069	115.44
633.275	115.44
633.481	108.44
633.688	112.44
633.893	126.44
634.099	110.44
634.305	134.44
634.511	120.44
634.717	122.44
634.923	123.44
635.129	118.44
635.335	120.44
635.541	136.44
635.747	118.44
635.952	111.44
636.158	114.44
636.364	122.44
636.57	136.44
636.775	126.44
636.981	130.44
637.187	124.44
637.392	123.44
637.598	113.44
637.804	114.44
638.009	116.44
638.215	122.44
638.421	122.44
638.626	140.44
638.832	133.44
639.037	108.44
639.243	125.44
639.448	103.44
639.654	109.44
639.859	105.44
640.065	119.44
640.27	121.44
640.475	107.44
640.681	122.44
640.886	120.44
641.091	118.44
641.297	128.44
641.502	105.44
641.707	126.44
641.913	118.44
642.118	107.44
642.323	114.44
642.528	114.44
642.733	116.44
642.939	119.44
643.144	117.44
643.349	122.44
643.554	105.44
643.759	113.44
643.964	119.44
644.169	107.44
644.374	114.44
644.579	104.44
644.784	123.44
644.989	128.44
645.194	118.44
645.399	114.44
645.604	121.44
645.809	109.44
646.014	114.44
646.219	116.44
646.423	105.44
646.628	109.44
646.833	122.44
647.038	114.44
647.243	126.44
647.447	130.44
647.652	127.44
647.857	109.44
648.062	112.44
648.266	105.44
648.471	121.44
648.676	122.44
648.88	99.44
649.085	122.44
649.289	128.44
649.494	132.44
649.698	122.44
649.903	106.44
650.107	119.44
650.312	106.44
650.516	128.44
650.721	116.44
650.925	103.44
651.13	128.44
651.334	106.44
651.539	112.44
651.743	110.44
651.947	114.44
652.152	109.44
652.356	118.44
652.56	114.44
652.764	106.44
652.969	103.44
653.173	115.44
653.377	107.44
653.581	122.44
653.785	114.44
653.99	117.44
654.194	89.44
654.398	104.44
654.602	102.44
654.806	112.44
655.01	118.44
655.214	109.44
655.418	121.44
655.622	119.44
655.826	118.44
656.03	120.44
656.234	112.44
656.438	116.44
656.642	114.44
656.846	112.44
657.049	100.44
657.253	104.44
657.457	109.44
657.661	99.44
657.865	102.44
658.068	83.44
658.272	87.44
658.476	100.44
658.68	98.44
658.883	79.44
659.087	92.44
659.291	92.44
659.494	81.44
659.698	93.44
659.901	76.44
660.105	96.44
660.309	91.44
660.512	91.44
660.716	74.44
660.919	75.44
661.123	89.44
661.326	90.44
661.53	96.44
661.733	89.44
661.936	82.44
662.14	80.44
662.343	88.44
662.546	82.44
662.75	95.44
662.953	91.44
663.156	69.44
663.36	82.44
663.563	93.44
663.766	97.44
663.969	96.44
664.173	83.44
664.376	86.44
664.579	77.44
664.782	74.44
664.985	86.44
665.188	91.44
665.391	74.44
665.594	96.44
665.797	83.44
666	89.44
666.203	76.44
666.406	78.44
666.609	87.44
666.812	74.44
667.015	83.44
667.218	84.44
667.421	85.44
667.624	90.44
667.827	86.44
668.03	64.44
668.232	77.44
668.435	81.44
668.638	87.44
668.841	91.44
669.043	73.44
669.246	87.44
669.449	96.44
669.651	81.44
669.854	82.44
670.057	79.44
670.259	72.44
670.462	73.44
670.665	76.44
670.867	61.44
671.07	77.44
671.272	88.44
671.475	74.44
671.677	85.44
671.88	78.44
672.082	76.44
672.284	80.44
672.487	61.44
672.689	77.44
672.892	75.44
