Data from 1966.PennyLincolnUp.Lamp.En5.5.200Scan.071719.P1._HRD10591_14-14-24-915.txt Node
Date: Thu Jul 18 14:14:24 EDT 2019
User: cochatt
Spectrometer: HR+D1059
Trigger mode: 1
Integration Time (sec): 1.000000E-1
Scans to average: 1
Electric dark correction enabled: true
Nonlinearity correction enabled: false
Boxcar width: 0
XAxis mode: Wavelengths
Number of Pixels in Spectrum: 2048
>>>>>Begin Spectral Data<<<<<
223.165	-7.19
223.4	-7.19
223.635	-7.19
223.869	-11.19
224.104	-17.19
224.338	-3.19
224.573	-26.19
224.808	-20.19
225.042	-13.19
225.277	-10.19
225.511	-4.19
225.746	16.81
225.98	4.81
226.215	18.81
226.449	8.81
226.683	17.81
226.918	19.81
227.152	25.81
227.387	42.81
227.621	19.81
227.856	39.81
228.09	50.81
228.324	57.81
228.559	62.81
228.793	61.81
229.027	74.81
229.262	73.81
229.496	82.81
229.73	98.81
229.964	123.81
230.199	104.81
230.433	88.81
230.667	73.81
230.901	97.81
231.136	82.81
231.37	95.81
231.604	84.81
231.838	84.81
232.072	89.81
232.306	90.81
232.541	88.81
232.775	90.81
233.009	91.81
233.243	100.81
233.477	93.81
233.711	96.81
233.945	95.81
234.179	94.81
234.413	84.81
234.647	94.81
234.881	87.81
235.115	102.81
235.349	86.81
235.583	92.81
235.817	107.81
236.051	111.81
236.285	92.81
236.519	91.81
236.753	99.81
236.987	104.81
237.221	122.81
237.455	155.81
237.689	130.81
237.922	97.81
238.156	110.81
238.39	105.81
238.624	95.81
238.858	96.81
239.091	84.81
239.325	85.81
239.559	98.81
239.793	103.81
240.027	104.81
240.26	104.81
240.494	109.81
240.728	120.81
240.961	114.81
241.195	98.81
241.429	101.81
241.662	89.81
241.896	94.81
242.13	98.81
242.363	98.81
242.597	101.81
242.83	113.81
243.064	117.81
243.298	109.81
243.531	96.81
243.765	84.81
243.998	100.81
244.232	110.81
244.465	114.81
244.699	115.81
244.932	103.81
245.166	114.81
245.399	107.81
245.633	109.81
245.866	119.81
246.099	119.81
246.333	112.81
246.566	115.81
246.8	117.81
247.033	105.81
247.266	122.81
247.5	121.81
247.733	111.81
247.966	115.81
248.2	113.81
248.433	102.81
248.666	121.81
248.899	127.81
249.133	149.81
249.366	142.81
249.599	136.81
249.832	117.81
250.066	136.81
250.299	123.81
250.532	121.81
250.765	131.81
250.998	153.81
251.231	143.81
251.465	122.81
251.698	130.81
251.931	127.81
252.164	136.81
252.397	126.81
252.63	139.81
252.863	137.81
253.096	141.81
253.329	135.81
253.562	151.81
253.795	150.81
254.028	147.81
254.261	129.81
254.494	133.81
254.727	158.81
254.96	169.81
255.193	153.81
255.426	138.81
255.659	132.81
255.892	130.81
256.124	139.81
256.357	145.81
256.59	139.81
256.823	150.81
257.056	143.81
257.289	149.81
257.521	147.81
257.754	136.81
257.987	123.81
258.22	136.81
258.452	122.81
258.685	135.81
258.918	151.81
259.151	147.81
259.383	140.81
259.616	144.81
259.849	148.81
260.081	154.81
260.314	153.81
260.547	146.81
260.779	158.81
261.012	152.81
261.244	131.81
261.477	130.81
261.71	141.81
261.942	137.81
262.175	146.81
262.407	147.81
262.64	128.81
262.872	126.81
263.105	137.81
263.337	134.81
263.57	136.81
263.802	122.81
264.035	134.81
264.267	149.81
264.499	127.81
264.732	132.81
264.964	131.81
265.197	141.81
265.429	145.81
265.661	129.81
265.894	151.81
266.126	135.81
266.358	148.81
266.591	121.81
266.823	142.81
267.055	141.81
267.287	139.81
267.52	143.81
267.752	157.81
267.984	149.81
268.216	139.81
268.448	140.81
268.681	145.81
268.913	163.81
269.145	169.81
269.377	173.81
269.609	162.81
269.841	163.81
270.073	172.81
270.306	173.81
270.538	187.81
270.77	182.81
271.002	165.81
271.234	173.81
271.466	190.81
271.698	192.81
271.93	189.81
272.162	181.81
272.394	189.81
272.626	161.81
272.858	162.81
273.09	166.81
273.322	147.81
273.553	158.81
273.785	157.81
274.017	153.81
274.249	160.81
274.481	143.81
274.713	154.81
274.945	153.81
275.176	180.81
275.408	146.81
275.64	157.81
275.872	154.81
276.104	151.81
276.335	175.81
276.567	159.81
276.799	172.81
277.031	199.81
277.262	196.81
277.494	194.81
277.726	196.81
277.957	184.81
278.189	169.81
278.421	143.81
278.652	177.81
278.884	156.81
279.115	164.81
279.347	145.81
279.579	151.81
279.81	149.81
280.042	146.81
280.273	158.81
280.505	175.81
280.736	169.81
280.968	153.81
281.199	174.81
281.431	156.81
281.662	157.81
281.894	163.81
282.125	167.81
282.356	184.81
282.588	189.81
282.819	174.81
283.051	149.81
283.282	173.81
283.513	161.81
283.745	162.81
283.976	150.81
284.207	168.81
284.439	159.81
284.67	182.81
284.901	172.81
285.132	156.81
285.364	152.81
285.595	166.81
285.826	159.81
286.057	155.81
286.288	155.81
286.52	160.81
286.751	170.81
286.982	165.81
287.213	156.81
287.444	171.81
287.675	178.81
287.906	177.81
288.138	190.81
288.369	178.81
288.6	197.81
288.831	173.81
289.062	162.81
289.293	159.81
289.524	167.81
289.755	177.81
289.986	169.81
290.217	163.81
290.448	158.81
290.679	175.81
290.91	165.81
291.141	159.81
291.371	173.81
291.602	170.81
291.833	177.81
292.064	160.81
292.295	163.81
292.526	168.81
292.757	175.81
292.987	165.81
293.218	166.81
293.449	174.81
293.68	167.81
293.91	163.81
294.141	168.81
294.372	171.81
294.603	165.81
294.833	181.81
295.064	179.81
295.295	175.81
295.525	173.81
295.756	181.81
295.987	179.81
296.217	196.81
296.448	202.81
296.679	203.81
296.909	171.81
297.14	177.81
297.37	166.81
297.601	169.81
297.831	166.81
298.062	174.81
298.292	177.81
298.523	181.81
298.753	175.81
298.984	173.81
299.214	171.81
299.445	173.81
299.675	172.81
299.905	178.81
300.136	178.81
300.366	174.81
300.597	182.81
300.827	180.81
301.057	168.81
301.288	198.81
301.518	174.81
301.748	183.81
301.979	205.81
302.209	199.81
302.439	190.81
302.669	195.81
302.9	195.81
303.13	202.81
303.36	195.81
303.59	199.81
303.82	173.81
304.051	184.81
304.281	187.81
304.511	183.81
304.741	189.81
304.971	168.81
305.201	177.81
305.431	181.81
305.661	191.81
305.891	198.81
306.121	190.81
306.352	187.81
306.582	198.81
306.812	205.81
307.042	190.81
307.272	181.81
307.502	196.81
307.731	187.81
307.961	181.81
308.191	183.81
308.421	194.81
308.651	181.81
308.881	189.81
309.111	186.81
309.341	189.81
309.571	190.81
309.8	198.81
310.03	195.81
310.26	197.81
310.49	196.81
310.72	221.81
310.949	219.81
311.179	234.81
311.409	218.81
311.639	206.81
311.868	201.81
312.098	196.81
312.328	200.81
312.557	219.81
312.787	220.81
313.017	245.81
313.246	222.81
313.476	204.81
313.706	221.81
313.935	217.81
314.165	221.81
314.394	237.81
314.624	230.81
314.853	220.81
315.083	202.81
315.312	207.81
315.542	217.81
315.771	197.81
316.001	195.81
316.23	202.81
316.46	201.81
316.689	214.81
316.919	221.81
317.148	204.81
317.377	217.81
317.607	206.81
317.836	217.81
318.065	206.81
318.295	206.81
318.524	210.81
318.753	221.81
318.983	223.81
319.212	214.81
319.441	208.81
319.67	229.81
319.9	209.81
320.129	213.81
320.358	211.81
320.587	205.81
320.816	213.81
321.046	217.81
321.275	210.81
321.504	204.81
321.733	220.81
321.962	214.81
322.191	221.81
322.42	236.81
322.649	249.81
322.878	250.81
323.108	241.81
323.337	246.81
323.566	274.81
323.795	266.81
324.024	321.81
324.253	371.81
324.482	524.81
324.71	779.81
324.939	1031.81
325.168	869.81
325.397	452.81
325.626	305.81
325.855	277.81
326.084	278.81
326.313	259.81
326.542	273.81
326.77	290.81
326.999	366.81
327.228	471.81
327.457	703.81
327.686	788.81
327.914	511.81
328.143	363.81
328.372	306.81
328.6	313.81
328.829	288.81
329.058	317.81
329.287	323.81
329.515	293.81
329.744	277.81
329.972	279.81
330.201	288.81
330.43	317.81
330.658	341.81
330.887	343.81
331.115	331.81
331.344	284.81
331.572	270.81
331.801	271.81
332.03	252.81
332.258	251.81
332.486	249.81
332.715	245.81
332.943	258.81
333.172	222.81
333.4	247.81
333.629	261.81
333.857	258.81
334.085	280.81
334.314	291.81
334.542	302.81
334.771	329.81
334.999	264.81
335.227	263.81
335.455	255.81
335.684	269.81
335.912	238.81
336.14	261.81
336.369	230.81
336.597	260.81
336.825	241.81
337.053	251.81
337.281	237.81
337.51	243.81
337.738	229.81
337.966	232.81
338.194	242.81
338.422	238.81
338.65	226.81
338.878	234.81
339.106	217.81
339.334	233.81
339.562	228.81
339.79	226.81
340.018	244.81
340.246	238.81
340.474	237.81
340.702	235.81
340.93	218.81
341.158	236.81
341.386	226.81
341.614	241.81
341.842	215.81
342.07	219.81
342.298	221.81
342.526	226.81
342.754	226.81
342.981	219.81
343.209	225.81
343.437	234.81
343.665	234.81
343.893	220.81
344.12	222.81
344.348	250.81
344.576	238.81
344.804	230.81
345.031	233.81
345.259	233.81
345.487	238.81
345.714	225.81
345.942	233.81
346.17	214.81
346.397	241.81
346.625	233.81
346.853	225.81
347.08	207.81
347.308	224.81
347.535	230.81
347.763	222.81
347.99	243.81
348.218	225.81
348.445	241.81
348.673	228.81
348.9	205.81
349.128	204.81
349.355	214.81
349.583	219.81
349.81	216.81
350.037	197.81
350.265	221.81
350.492	208.81
350.72	211.81
350.947	202.81
351.174	218.81
351.402	237.81
351.629	230.81
351.856	221.81
352.083	214.81
352.311	234.81
352.538	238.81
352.765	227.81
352.992	219.81
353.22	244.81
353.447	222.81
353.674	221.81
353.901	228.81
354.128	219.81
354.355	203.81
354.583	207.81
354.81	230.81
355.037	206.81
355.264	201.81
355.491	187.81
355.718	206.81
355.945	210.81
356.172	222.81
356.399	187.81
356.626	200.81
356.853	205.81
357.08	189.81
357.307	186.81
357.534	199.81
357.761	197.81
357.988	200.81
358.215	206.81
358.441	201.81
358.668	207.81
358.895	215.81
359.122	241.81
359.349	234.81
359.576	235.81
359.802	271.81
360.029	247.81
360.256	280.81
360.483	253.81
360.709	214.81
360.936	223.81
361.163	215.81
361.39	210.81
361.616	242.81
361.843	218.81
362.07	200.81
362.296	222.81
362.523	226.81
362.749	224.81
362.976	214.81
363.203	220.81
363.429	223.81
363.656	220.81
363.882	209.81
364.109	185.81
364.335	213.81
364.562	213.81
364.788	202.81
365.015	215.81
365.241	227.81
365.468	220.81
365.694	232.81
365.92	220.81
366.147	207.81
366.373	222.81
366.599	190.81
366.826	217.81
367.052	195.81
367.278	189.81
367.505	215.81
367.731	212.81
367.957	204.81
368.184	209.81
368.41	207.81
368.636	207.81
368.862	233.81
369.089	226.81
369.315	205.81
369.541	195.81
369.767	215.81
369.993	207.81
370.219	221.81
370.445	208.81
370.672	209.81
370.898	210.81
371.124	186.81
371.35	204.81
371.576	194.81
371.802	228.81
372.028	204.81
372.254	191.81
372.48	209.81
372.706	213.81
372.932	198.81
373.158	205.81
373.384	204.81
373.61	206.81
373.835	205.81
374.061	210.81
374.287	207.81
374.513	206.81
374.739	207.81
374.965	217.81
375.191	221.81
375.416	197.81
375.642	221.81
375.868	196.81
376.094	211.81
376.319	207.81
376.545	205.81
376.771	203.81
376.997	218.81
377.222	205.81
377.448	214.81
377.674	209.81
377.899	206.81
378.125	189.81
378.35	205.81
378.576	206.81
378.802	198.81
379.027	210.81
379.253	198.81
379.478	202.81
379.704	205.81
379.929	204.81
380.155	215.81
380.38	213.81
380.606	215.81
380.831	205.81
381.057	196.81
381.282	191.81
381.507	203.81
381.733	219.81
381.958	204.81
382.184	198.81
382.409	225.81
382.634	203.81
382.86	225.81
383.085	212.81
383.31	216.81
383.535	202.81
383.761	220.81
383.986	198.81
384.211	223.81
384.436	213.81
384.662	207.81
384.887	234.81
385.112	200.81
385.337	211.81
385.562	218.81
385.787	232.81
386.013	223.81
386.238	220.81
386.463	207.81
386.688	213.81
386.913	230.81
387.138	225.81
387.363	220.81
387.588	218.81
387.813	237.81
388.038	232.81
388.263	222.81
388.488	205.81
388.713	215.81
388.938	210.81
389.163	229.81
389.387	222.81
389.612	221.81
389.837	235.81
390.062	223.81
390.287	230.81
390.512	210.81
390.736	209.81
390.961	220.81
391.186	207.81
391.411	222.81
391.636	220.81
391.86	231.81
392.085	231.81
392.31	246.81
392.534	224.81
392.759	246.81
392.984	223.81
393.208	235.81
393.433	248.81
393.658	234.81
393.882	228.81
394.107	232.81
394.331	226.81
394.556	228.81
394.78	220.81
395.005	215.81
395.229	209.81
395.454	221.81
395.678	223.81
395.903	236.81
396.127	256.81
396.352	224.81
396.576	234.81
396.801	226.81
397.025	241.81
397.249	247.81
397.474	241.81
397.698	228.81
397.922	237.81
398.147	245.81
398.371	241.81
398.595	249.81
398.82	244.81
399.044	238.81
399.268	271.81
399.492	280.81
399.717	292.81
399.941	290.81
400.165	294.81
400.389	282.81
400.613	276.81
400.837	254.81
401.062	250.81
401.286	246.81
401.51	251.81
401.734	249.81
401.958	262.81
402.182	260.81
402.406	272.81
402.63	273.81
402.854	267.81
403.078	270.81
403.302	267.81
403.526	279.81
403.75	277.81
403.974	257.81
404.198	269.81
404.422	279.81
404.645	276.81
404.869	270.81
405.093	274.81
405.317	301.81
405.541	303.81
405.765	278.81
405.988	269.81
406.212	264.81
406.436	321.81
406.66	294.81
406.883	271.81
407.107	296.81
407.331	318.81
407.555	330.81
407.778	325.81
408.002	291.81
408.226	281.81
408.449	294.81
408.673	292.81
408.896	318.81
409.12	313.81
409.344	277.81
409.567	272.81
409.791	255.81
410.014	257.81
410.238	258.81
410.461	257.81
410.685	263.81
410.908	254.81
411.132	279.81
411.355	293.81
411.578	289.81
411.802	269.81
412.025	281.81
412.249	282.81
412.472	274.81
412.695	296.81
412.919	294.81
413.142	262.81
413.365	256.81
413.589	242.81
413.812	263.81
414.035	257.81
414.258	268.81
414.482	240.81
414.705	245.81
414.928	259.81
415.151	247.81
415.374	246.81
415.597	245.81
415.821	237.81
416.044	249.81
416.267	255.81
416.49	261.81
416.713	252.81
416.936	261.81
417.159	261.81
417.382	260.81
417.605	243.81
417.828	267.81
418.051	265.81
418.274	260.81
418.497	254.81
418.72	251.81
418.943	250.81
419.166	263.81
419.389	287.81
419.611	259.81
419.834	273.81
420.057	269.81
420.28	278.81
420.503	289.81
420.726	274.81
420.948	266.81
421.171	289.81
421.394	292.81
421.617	253.81
421.839	262.81
422.062	257.81
422.285	262.81
422.507	289.81
422.73	328.81
422.953	305.81
423.175	278.81
423.398	244.81
423.621	279.81
423.843	278.81
424.066	290.81
424.288	283.81
424.511	277.81
424.733	320.81
424.956	335.81
425.178	318.81
425.401	334.81
425.623	334.81
425.846	306.81
426.068	273.81
426.291	264.81
426.513	274.81
426.735	283.81
426.958	284.81
427.18	333.81
427.402	389.81
427.625	417.81
427.847	372.81
428.069	309.81
428.292	283.81
428.514	273.81
428.736	284.81
428.958	273.81
429.181	265.81
429.403	246.81
429.625	257.81
429.847	270.81
430.069	305.81
430.292	300.81
430.514	249.81
430.736	249.81
430.958	256.81
431.18	247.81
431.402	258.81
431.624	245.81
431.846	220.81
432.068	257.81
432.29	238.81
432.512	254.81
432.734	247.81
432.956	258.81
433.178	254.81
433.4	262.81
433.622	259.81
433.844	244.81
434.066	248.81
434.287	248.81
434.509	229.81
434.731	267.81
434.953	245.81
435.175	272.81
435.397	271.81
435.618	277.81
435.84	323.81
436.062	346.81
436.284	359.81
436.505	300.81
436.727	281.81
436.949	261.81
437.17	251.81
437.392	261.81
437.614	259.81
437.835	298.81
438.057	343.81
438.278	367.81
438.5	366.81
438.721	385.81
438.943	350.81
439.165	294.81
439.386	289.81
439.608	281.81
439.829	294.81
440.05	289.81
440.272	302.81
440.493	296.81
440.715	267.81
440.936	256.81
441.158	254.81
441.379	280.81
441.6	275.81
441.822	289.81
442.043	308.81
442.264	348.81
442.486	346.81
442.707	317.81
442.928	306.81
443.149	301.81
443.371	304.81
443.592	309.81
443.813	351.81
444.034	360.81
444.255	309.81
444.476	280.81
444.698	282.81
444.919	285.81
445.14	398.81
445.361	317.81
445.582	294.81
445.803	348.81
446.024	392.81
446.245	377.81
446.466	356.81
446.687	317.81
446.908	292.81
447.129	267.81
447.35	260.81
447.571	258.81
447.792	260.81
448.013	247.81
448.234	263.81
448.455	306.81
448.675	349.81
448.896	382.81
449.117	314.81
449.338	308.81
449.559	375.81
449.779	383.81
450	337.81
450.221	273.81
450.442	257.81
450.662	242.81
450.883	255.81
451.104	259.81
451.324	271.81
451.545	247.81
451.766	229.81
451.986	249.81
452.207	230.81
452.428	259.81
452.648	244.81
452.869	248.81
453.089	250.81
453.31	243.81
453.53	232.81
453.751	252.81
453.971	253.81
454.192	257.81
454.412	234.81
454.633	225.81
454.853	223.81
455.073	228.81
455.294	250.81
455.514	284.81
455.734	266.81
455.955	236.81
456.175	215.81
456.395	215.81
456.616	230.81
456.836	207.81
457.056	206.81
457.276	219.81
457.497	231.81
457.717	234.81
457.937	211.81
458.157	226.81
458.377	232.81
458.598	260.81
458.818	291.81
459.038	322.81
459.258	313.81
459.478	248.81
459.698	246.81
459.918	237.81
460.138	249.81
460.358	240.81
460.578	272.81
460.798	247.81
461.018	266.81
461.238	262.81
461.458	233.81
461.678	245.81
461.898	250.81
462.118	261.81
462.338	250.81
462.558	251.81
462.777	268.81
462.997	252.81
463.217	261.81
463.437	265.81
463.657	261.81
463.876	246.81
464.096	253.81
464.316	267.81
464.536	280.81
464.755	277.81
464.975	275.81
465.195	295.81
465.414	370.81
465.634	295.81
465.854	260.81
466.073	253.81
466.293	251.81
466.512	237.81
466.732	246.81
466.951	249.81
467.171	230.81
467.391	251.81
467.61	234.81
467.829	258.81
468.049	243.81
468.268	254.81
468.488	243.81
468.707	243.81
468.927	241.81
469.146	233.81
469.365	212.81
469.585	249.81
469.804	246.81
470.023	250.81
470.243	252.81
470.462	239.81
470.681	281.81
470.901	269.81
471.12	240.81
471.339	247.81
471.558	250.81
471.777	238.81
471.997	231.81
472.216	247.81
472.435	277.81
472.654	260.81
472.873	237.81
473.092	240.81
473.311	241.81
473.53	237.81
473.749	230.81
473.968	263.81
474.187	344.81
474.406	315.81
474.625	243.81
474.844	269.81
475.063	228.81
475.282	236.81
475.501	251.81
475.72	251.81
475.939	246.81
476.158	249.81
476.377	264.81
476.596	246.81
476.814	254.81
477.033	275.81
477.252	267.81
477.471	267.81
477.69	256.81
477.908	272.81
478.127	262.81
478.346	248.81
478.564	271.81
478.783	248.81
479.002	252.81
479.22	277.81
479.439	289.81
479.658	295.81
479.876	294.81
480.095	317.81
480.313	313.81
480.532	299.81
480.751	284.81
480.969	316.81
481.188	356.81
481.406	390.81
481.624	323.81
481.843	306.81
482.061	299.81
482.28	300.81
482.498	293.81
482.717	278.81
482.935	295.81
483.153	273.81
483.372	271.81
483.59	274.81
483.808	283.81
484.027	259.81
484.245	275.81
484.463	283.81
484.681	298.81
484.9	289.81
485.118	271.81
485.336	290.81
485.554	294.81
485.772	289.81
485.99	288.81
486.209	295.81
486.427	294.81
486.645	312.81
486.863	306.81
487.081	312.81
487.299	310.81
487.517	281.81
487.735	293.81
487.953	308.81
488.171	298.81
488.389	287.81
488.607	281.81
488.825	293.81
489.043	286.81
489.261	307.81
489.479	302.81
489.696	308.81
489.914	295.81
490.132	314.81
490.35	315.81
490.568	328.81
490.786	321.81
491.003	326.81
491.221	343.81
491.439	337.81
491.657	342.81
491.874	350.81
492.092	350.81
492.31	354.81
492.527	355.81
492.745	363.81
492.963	357.81
493.18	359.81
493.398	366.81
493.615	373.81
493.833	359.81
494.05	360.81
494.268	348.81
494.485	378.81
494.703	345.81
494.92	344.81
495.138	333.81
495.355	348.81
495.573	359.81
495.79	372.81
496.008	341.81
496.225	349.81
496.442	336.81
496.66	342.81
496.877	337.81
497.094	345.81
497.312	363.81
497.529	330.81
497.746	351.81
497.963	357.81
498.181	394.81
498.398	377.81
498.615	378.81
498.832	383.81
499.049	385.81
499.267	374.81
499.484	429.81
499.701	419.81
499.918	443.81
500.135	432.81
500.352	453.81
500.569	464.81
500.786	473.81
501.003	456.81
501.22	464.81
501.437	441.81
501.654	418.81
501.871	440.81
502.088	426.81
502.305	396.81
502.522	382.81
502.739	363.81
502.956	362.81
503.172	373.81
503.389	362.81
503.606	373.81
503.823	351.81
504.04	351.81
504.256	346.81
504.473	350.81
504.69	340.81
504.907	337.81
505.123	341.81
505.34	321.81
505.557	331.81
505.773	346.81
505.99	362.81
506.207	326.81
506.423	327.81
506.64	334.81
506.856	324.81
507.073	308.81
507.289	322.81
507.506	332.81
507.722	335.81
507.939	342.81
508.155	330.81
508.372	329.81
508.588	332.81
508.805	319.81
509.021	309.81
509.238	319.81
509.454	331.81
509.67	345.81
509.887	326.81
510.103	311.81
510.319	338.81
510.536	399.81
510.752	789.81
510.968	554.81
511.184	335.81
511.401	315.81
511.617	309.81
511.833	305.81
512.049	310.81
512.265	293.81
512.481	310.81
512.698	292.81
512.914	310.81
513.13	299.81
513.346	285.81
513.562	298.81
513.778	303.81
513.994	299.81
514.21	313.81
514.426	340.81
514.642	355.81
514.858	352.81
515.074	379.81
515.29	503.81
515.506	845.81
515.721	637.81
515.937	381.81
516.153	360.81
516.369	317.81
516.585	321.81
516.801	302.81
517.016	313.81
517.232	298.81
517.448	312.81
517.664	313.81
517.879	305.81
518.095	289.81
518.311	297.81
518.527	313.81
518.742	286.81
518.958	315.81
519.173	302.81
519.389	295.81
519.605	282.81
519.82	289.81
520.036	292.81
520.251	299.81
520.467	349.81
520.682	336.81
520.898	344.81
521.113	339.81
521.329	399.81
521.544	437.81
521.76	601.81
521.975	1180.81
522.19	1171.81
522.406	565.81
522.621	387.81
522.836	307.81
523.052	307.81
523.267	298.81
523.482	267.81
523.698	262.81
523.913	269.81
524.128	265.81
524.343	267.81
524.559	267.81
524.774	267.81
524.989	260.81
525.204	276.81
525.419	271.81
525.634	264.81
525.849	251.81
526.064	261.81
526.28	229.81
526.495	248.81
526.71	247.81
526.925	253.81
527.14	263.81
527.355	242.81
527.57	249.81
527.785	247.81
527.999	233.81
528.214	242.81
528.429	242.81
528.644	249.81
528.859	261.81
529.074	258.81
529.289	278.81
529.503	334.81
529.718	306.81
529.933	261.81
530.148	256.81
530.363	238.81
530.577	247.81
530.792	243.81
531.007	230.81
531.221	237.81
531.436	231.81
531.651	245.81
531.865	228.81
532.08	235.81
532.295	231.81
532.509	222.81
532.724	233.81
532.938	243.81
533.153	227.81
533.367	235.81
533.582	239.81
533.796	225.81
534.011	230.81
534.225	247.81
534.44	226.81
534.654	243.81
534.868	225.81
535.083	229.81
535.297	240.81
535.511	251.81
535.726	259.81
535.94	260.81
536.154	245.81
536.369	224.81
536.583	240.81
536.797	225.81
537.011	225.81
537.225	227.81
537.44	229.81
537.654	228.81
537.868	222.81
538.082	219.81
538.296	233.81
538.51	223.81
538.724	230.81
538.938	233.81
539.153	230.81
539.367	247.81
539.581	262.81
539.795	238.81
540.009	227.81
540.222	256.81
540.436	238.81
540.65	235.81
540.864	229.81
541.078	227.81
541.292	252.81
541.506	235.81
541.72	259.81
541.934	235.81
542.147	235.81
542.361	226.81
542.575	236.81
542.789	234.81
543.002	229.81
543.216	235.81
543.43	247.81
543.644	222.81
543.857	231.81
544.071	228.81
544.285	229.81
544.498	233.81
544.712	231.81
544.925	243.81
545.139	243.81
545.352	231.81
545.566	223.81
545.779	227.81
545.993	229.81
546.206	246.81
546.42	230.81
546.633	229.81
546.847	224.81
547.06	225.81
547.274	232.81
547.487	214.81
547.7	211.81
547.914	218.81
548.127	237.81
548.34	224.81
548.554	211.81
548.767	222.81
548.98	217.81
549.193	228.81
549.407	215.81
549.62	215.81
549.833	229.81
550.046	234.81
550.259	237.81
550.473	231.81
550.686	222.81
550.899	232.81
551.112	214.81
551.325	208.81
551.538	214.81
551.751	231.81
551.964	204.81
552.177	214.81
552.39	217.81
552.603	228.81
552.816	227.81
553.029	222.81
553.242	225.81
553.455	228.81
553.667	246.81
553.88	249.81
554.093	222.81
554.306	238.81
554.519	226.81
554.732	226.81
554.944	218.81
555.157	212.81
555.37	194.81
555.583	211.81
555.795	227.81
556.008	207.81
556.221	199.81
556.433	216.81
556.646	218.81
556.859	197.81
557.071	206.81
557.284	206.81
557.496	203.81
557.709	210.81
557.921	205.81
558.134	202.81
558.346	217.81
558.559	209.81
558.771	191.81
558.984	205.81
559.196	207.81
559.409	194.81
559.621	203.81
559.833	201.81
560.046	193.81
560.258	210.81
560.47	215.81
560.683	205.81
560.895	190.81
561.107	205.81
561.32	215.81
561.532	207.81
561.744	202.81
561.956	196.81
562.168	206.81
562.381	202.81
562.593	195.81
562.805	208.81
563.017	198.81
563.229	197.81
563.441	198.81
563.653	194.81
563.865	191.81
564.077	220.81
564.289	199.81
564.501	196.81
564.713	197.81
564.925	210.81
565.137	214.81
565.349	207.81
565.561	212.81
565.773	216.81
565.985	217.81
566.197	219.81
566.408	233.81
566.62	219.81
566.832	241.81
567.044	232.81
567.255	241.81
567.467	251.81
567.679	238.81
567.891	237.81
568.102	244.81
568.314	240.81
568.526	221.81
568.737	247.81
568.949	212.81
569.161	201.81
569.372	220.81
569.584	198.81
569.795	192.81
570.007	203.81
570.218	245.81
570.43	214.81
570.641	200.81
570.853	180.81
571.064	193.81
571.276	199.81
571.487	187.81
571.698	203.81
571.91	193.81
572.121	207.81
572.333	205.81
572.544	185.81
572.755	183.81
572.966	182.81
573.178	189.81
573.389	175.81
573.6	171.81
573.811	182.81
574.023	170.81
574.234	167.81
574.445	177.81
574.656	179.81
574.867	179.81
575.078	166.81
575.289	182.81
575.501	198.81
575.712	162.81
575.923	169.81
576.134	176.81
576.345	175.81
576.556	177.81
576.767	175.81
576.978	172.81
577.188	171.81
577.399	177.81
577.61	171.81
577.821	172.81
578.032	169.81
578.243	205.81
578.454	381.81
578.665	257.81
578.875	181.81
579.086	160.81
579.297	180.81
579.508	173.81
579.718	178.81
579.929	177.81
580.14	174.81
580.35	165.81
580.561	182.81
580.772	173.81
580.982	167.81
581.193	149.81
581.403	166.81
581.614	161.81
581.825	181.81
582.035	170.81
582.246	163.81
582.456	157.81
582.667	165.81
582.877	169.81
583.087	155.81
583.298	173.81
583.508	162.81
583.719	162.81
583.929	183.81
584.139	171.81
584.35	146.81
584.56	166.81
584.77	182.81
584.981	165.81
585.191	174.81
585.401	160.81
585.611	167.81
585.821	167.81
586.032	163.81
586.242	153.81
586.452	162.81
586.662	158.81
586.872	161.81
587.082	166.81
587.292	156.81
587.502	165.81
587.713	169.81
587.923	154.81
588.133	161.81
588.343	153.81
588.553	154.81
588.762	179.81
588.972	171.81
589.182	178.81
589.392	163.81
589.602	166.81
589.812	176.81
590.022	172.81
590.232	150.81
590.441	155.81
590.651	166.81
590.861	151.81
591.071	150.81
591.281	157.81
591.49	151.81
591.7	163.81
591.91	160.81
592.119	179.81
592.329	171.81
592.539	172.81
592.748	183.81
592.958	167.81
593.167	166.81
593.377	171.81
593.587	184.81
593.796	183.81
594.006	173.81
594.215	173.81
594.424	149.81
594.634	154.81
594.843	178.81
595.053	157.81
595.262	161.81
595.472	163.81
595.681	165.81
595.89	159.81
596.1	162.81
596.309	146.81
596.518	140.81
596.727	154.81
596.937	161.81
597.146	141.81
597.355	155.81
597.564	161.81
597.774	157.81
597.983	140.81
598.192	151.81
598.401	157.81
598.61	147.81
598.819	129.81
599.028	149.81
599.237	158.81
599.446	140.81
599.655	149.81
599.864	146.81
600.073	147.81
600.282	148.81
600.491	158.81
600.7	143.81
600.909	128.81
601.118	155.81
601.327	154.81
601.536	152.81
601.745	149.81
601.953	151.81
602.162	148.81
602.371	148.81
602.58	154.81
602.789	129.81
602.997	139.81
603.206	141.81
603.415	135.81
603.623	153.81
603.832	137.81
604.041	143.81
604.249	165.81
604.458	136.81
604.666	135.81
604.875	156.81
605.084	157.81
605.292	138.81
605.501	142.81
605.709	141.81
605.918	138.81
606.126	148.81
606.334	140.81
606.543	143.81
606.751	162.81
606.96	142.81
607.168	152.81
607.376	143.81
607.585	144.81
607.793	147.81
608.001	146.81
608.21	148.81
608.418	147.81
608.626	139.81
608.834	146.81
609.043	153.81
609.251	143.81
609.459	150.81
609.667	151.81
609.875	156.81
610.083	149.81
610.291	127.81
610.499	150.81
610.707	154.81
610.916	155.81
611.124	150.81
611.332	141.81
611.54	149.81
611.748	158.81
611.955	142.81
612.163	153.81
612.371	148.81
612.579	143.81
612.787	149.81
612.995	151.81
613.203	130.81
613.411	158.81
613.618	129.81
613.826	146.81
614.034	147.81
614.242	144.81
614.449	156.81
614.657	153.81
614.865	141.81
615.072	132.81
615.28	138.81
615.488	148.81
615.695	157.81
615.903	158.81
616.111	137.81
616.318	143.81
616.526	142.81
616.733	156.81
616.941	144.81
617.148	143.81
617.356	139.81
617.563	141.81
617.771	141.81
617.978	131.81
618.185	143.81
618.393	139.81
618.6	150.81
618.807	122.81
619.015	147.81
619.222	137.81
619.429	147.81
619.637	144.81
619.844	138.81
620.051	126.81
620.258	134.81
620.466	150.81
620.673	123.81
620.88	133.81
621.087	114.81
621.294	147.81
621.501	124.81
621.708	140.81
621.915	144.81
622.122	133.81
622.329	135.81
622.536	120.81
622.743	140.81
622.95	142.81
623.157	124.81
623.364	145.81
623.571	128.81
623.778	130.81
623.985	159.81
624.192	137.81
624.399	126.81
624.606	144.81
624.812	141.81
625.019	133.81
625.226	142.81
625.433	133.81
625.639	129.81
625.846	140.81
626.053	130.81
626.259	118.81
626.466	140.81
626.673	136.81
626.879	130.81
627.086	131.81
627.293	124.81
627.499	131.81
627.706	130.81
627.912	139.81
628.119	143.81
628.325	138.81
628.532	153.81
628.738	127.81
628.945	137.81
629.151	130.81
629.357	137.81
629.564	135.81
629.77	136.81
629.976	130.81
630.183	125.81
630.389	134.81
630.595	119.81
630.802	122.81
631.008	123.81
631.214	115.81
631.42	123.81
631.627	135.81
631.833	126.81
632.039	129.81
632.245	121.81
632.451	117.81
632.657	113.81
632.863	118.81
633.069	133.81
633.275	127.81
633.481	119.81
633.688	120.81
633.893	110.81
634.099	121.81
634.305	127.81
634.511	115.81
634.717	131.81
634.923	125.81
635.129	113.81
635.335	115.81
635.541	123.81
635.747	120.81
635.952	124.81
636.158	121.81
636.364	126.81
636.57	148.81
636.775	122.81
636.981	108.81
637.187	129.81
637.392	132.81
637.598	116.81
637.804	117.81
638.009	118.81
638.215	124.81
638.421	108.81
638.626	119.81
638.832	115.81
639.037	120.81
639.243	132.81
639.448	118.81
639.654	119.81
639.859	121.81
640.065	128.81
640.27	134.81
640.475	118.81
640.681	120.81
640.886	108.81
641.091	110.81
641.297	105.81
641.502	113.81
641.707	116.81
641.913	114.81
642.118	122.81
642.323	112.81
642.528	116.81
642.733	123.81
642.939	116.81
643.144	118.81
643.349	125.81
643.554	125.81
643.759	116.81
643.964	102.81
644.169	112.81
644.374	107.81
644.579	115.81
644.784	117.81
644.989	118.81
645.194	115.81
645.399	131.81
645.604	97.81
645.809	115.81
646.014	121.81
646.219	103.81
646.423	110.81
646.628	100.81
646.833	114.81
647.038	117.81
647.243	114.81
647.447	118.81
647.652	127.81
647.857	123.81
648.062	107.81
648.266	106.81
648.471	130.81
648.676	125.81
648.88	123.81
649.085	111.81
649.289	120.81
649.494	113.81
649.698	131.81
649.903	124.81
650.107	131.81
650.312	123.81
650.516	132.81
650.721	117.81
650.925	110.81
651.13	109.81
651.334	93.81
651.539	119.81
651.743	116.81
651.947	102.81
652.152	116.81
652.356	107.81
652.56	115.81
652.764	104.81
652.969	103.81
653.173	108.81
653.377	92.81
653.581	99.81
653.785	108.81
653.99	104.81
654.194	116.81
654.398	108.81
654.602	119.81
654.806	100.81
655.01	99.81
655.214	101.81
655.418	94.81
655.622	110.81
655.826	94.81
656.03	129.81
656.234	103.81
656.438	109.81
656.642	109.81
656.846	102.81
657.049	123.81
657.253	103.81
657.457	91.81
657.661	94.81
657.865	97.81
658.068	92.81
658.272	86.81
658.476	79.81
658.68	87.81
658.883	86.81
659.087	87.81
659.291	96.81
659.494	99.81
659.698	88.81
659.901	73.81
660.105	97.81
660.309	73.81
660.512	85.81
660.716	73.81
660.919	76.81
661.123	89.81
661.326	73.81
661.53	79.81
661.733	87.81
661.936	91.81
662.14	85.81
662.343	93.81
662.546	79.81
662.75	90.81
662.953	81.81
663.156	82.81
663.36	77.81
663.563	92.81
663.766	80.81
663.969	92.81
664.173	85.81
664.376	67.81
664.579	88.81
664.782	80.81
664.985	77.81
665.188	71.81
665.391	93.81
665.594	89.81
665.797	87.81
666	87.81
666.203	78.81
666.406	87.81
666.609	67.81
666.812	74.81
667.015	68.81
667.218	91.81
667.421	87.81
667.624	84.81
667.827	87.81
668.03	74.81
668.232	82.81
668.435	90.81
668.638	65.81
668.841	85.81
669.043	76.81
669.246	85.81
669.449	80.81
669.651	84.81
669.854	65.81
670.057	82.81
670.259	83.81
670.462	92.81
670.665	92.81
670.867	86.81
671.07	81.81
671.272	84.81
671.475	89.81
671.677	79.81
671.88	78.81
672.082	86.81
672.284	86.81
672.487	83.81
672.689	83.81
672.892	77.81
