Data from 1966.PennyLincolnUp.Lamp.En5.5.200Scan.071719.P1._HRD10591_14-13-24-914.txt Node
Date: Thu Jul 18 14:13:24 EDT 2019
User: cochatt
Spectrometer: HR+D1059
Trigger mode: 1
Integration Time (sec): 1.000000E-1
Scans to average: 1
Electric dark correction enabled: true
Nonlinearity correction enabled: false
Boxcar width: 0
XAxis mode: Wavelengths
Number of Pixels in Spectrum: 2048
>>>>>Begin Spectral Data<<<<<
223.165	-18.88
223.4	-18.88
223.635	-18.88
223.869	-11.88
224.104	-25.88
224.338	-16.88
224.573	-5.88
224.808	-7.88
225.042	-6.88
225.277	-8.88
225.511	-10.88
225.746	1.12
225.98	10.12
226.215	6.12
226.449	13.12
226.683	22.12
226.918	41.12
227.152	20.12
227.387	20.12
227.621	38.12
227.856	49.12
228.09	39.12
228.324	56.12
228.559	54.12
228.793	71.12
229.027	78.12
229.262	82.12
229.496	90.12
229.73	91.12
229.964	101.12
230.199	96.12
230.433	109.12
230.667	83.12
230.901	85.12
231.136	91.12
231.37	90.12
231.604	82.12
231.838	94.12
232.072	112.12
232.306	88.12
232.541	102.12
232.775	97.12
233.009	88.12
233.243	101.12
233.477	93.12
233.711	90.12
233.945	97.12
234.179	93.12
234.413	99.12
234.647	114.12
234.881	97.12
235.115	92.12
235.349	105.12
235.583	96.12
235.817	97.12
236.051	93.12
236.285	99.12
236.519	88.12
236.753	100.12
236.987	109.12
237.221	120.12
237.455	133.12
237.689	107.12
237.922	98.12
238.156	94.12
238.39	95.12
238.624	95.12
238.858	89.12
239.091	104.12
239.325	91.12
239.559	86.12
239.793	93.12
240.027	97.12
240.26	89.12
240.494	125.12
240.728	116.12
240.961	105.12
241.195	94.12
241.429	104.12
241.662	105.12
241.896	98.12
242.13	101.12
242.363	100.12
242.597	97.12
242.83	106.12
243.064	105.12
243.298	113.12
243.531	93.12
243.765	105.12
243.998	106.12
244.232	95.12
244.465	94.12
244.699	98.12
244.932	103.12
245.166	97.12
245.399	101.12
245.633	101.12
245.866	119.12
246.099	109.12
246.333	103.12
246.566	100.12
246.8	90.12
247.033	111.12
247.266	109.12
247.5	107.12
247.733	125.12
247.966	124.12
248.2	115.12
248.433	116.12
248.666	116.12
248.899	120.12
249.133	137.12
249.366	122.12
249.599	130.12
249.832	130.12
250.066	115.12
250.299	127.12
250.532	132.12
250.765	123.12
250.998	145.12
251.231	137.12
251.465	136.12
251.698	133.12
251.931	140.12
252.164	129.12
252.397	123.12
252.63	148.12
252.863	117.12
253.096	134.12
253.329	147.12
253.562	137.12
253.795	129.12
254.028	134.12
254.261	140.12
254.494	149.12
254.727	161.12
254.96	164.12
255.193	152.12
255.426	142.12
255.659	125.12
255.892	137.12
256.124	127.12
256.357	153.12
256.59	131.12
256.823	122.12
257.056	126.12
257.289	148.12
257.521	138.12
257.754	150.12
257.987	133.12
258.22	133.12
258.452	134.12
258.685	121.12
258.918	134.12
259.151	123.12
259.383	131.12
259.616	138.12
259.849	145.12
260.081	135.12
260.314	157.12
260.547	160.12
260.779	151.12
261.012	141.12
261.244	141.12
261.477	143.12
261.71	135.12
261.942	154.12
262.175	149.12
262.407	137.12
262.64	155.12
262.872	131.12
263.105	126.12
263.337	137.12
263.57	129.12
263.802	135.12
264.035	139.12
264.267	144.12
264.499	134.12
264.732	142.12
264.964	143.12
265.197	130.12
265.429	134.12
265.661	132.12
265.894	138.12
266.126	122.12
266.358	130.12
266.591	133.12
266.823	147.12
267.055	145.12
267.287	144.12
267.52	145.12
267.752	156.12
267.984	130.12
268.216	137.12
268.448	145.12
268.681	144.12
268.913	154.12
269.145	165.12
269.377	171.12
269.609	145.12
269.841	149.12
270.073	162.12
270.306	165.12
270.538	186.12
270.77	191.12
271.002	155.12
271.234	177.12
271.466	180.12
271.698	173.12
271.93	177.12
272.162	171.12
272.394	168.12
272.626	181.12
272.858	154.12
273.09	168.12
273.322	159.12
273.553	149.12
273.785	157.12
274.017	147.12
274.249	158.12
274.481	152.12
274.713	150.12
274.945	170.12
275.176	155.12
275.408	149.12
275.64	154.12
275.872	152.12
276.104	156.12
276.335	161.12
276.567	157.12
276.799	169.12
277.031	183.12
277.262	183.12
277.494	191.12
277.726	178.12
277.957	164.12
278.189	179.12
278.421	157.12
278.652	165.12
278.884	148.12
279.115	155.12
279.347	146.12
279.579	165.12
279.81	157.12
280.042	158.12
280.273	159.12
280.505	169.12
280.736	162.12
280.968	159.12
281.199	151.12
281.431	155.12
281.662	141.12
281.894	166.12
282.125	154.12
282.356	172.12
282.588	187.12
282.819	180.12
283.051	163.12
283.282	157.12
283.513	156.12
283.745	164.12
283.976	172.12
284.207	165.12
284.439	169.12
284.67	155.12
284.901	171.12
285.132	157.12
285.364	157.12
285.595	151.12
285.826	158.12
286.057	158.12
286.288	166.12
286.52	170.12
286.751	161.12
286.982	164.12
287.213	177.12
287.444	166.12
287.675	171.12
287.906	173.12
288.138	184.12
288.369	177.12
288.6	179.12
288.831	174.12
289.062	174.12
289.293	164.12
289.524	177.12
289.755	160.12
289.986	177.12
290.217	162.12
290.448	179.12
290.679	159.12
290.91	155.12
291.141	155.12
291.371	163.12
291.602	152.12
291.833	182.12
292.064	159.12
292.295	169.12
292.526	157.12
292.757	160.12
292.987	169.12
293.218	173.12
293.449	180.12
293.68	171.12
293.91	167.12
294.141	177.12
294.372	179.12
294.603	162.12
294.833	149.12
295.064	173.12
295.295	158.12
295.525	185.12
295.756	173.12
295.987	174.12
296.217	182.12
296.448	204.12
296.679	184.12
296.909	174.12
297.14	177.12
297.37	175.12
297.601	154.12
297.831	163.12
298.062	178.12
298.292	185.12
298.523	172.12
298.753	189.12
298.984	170.12
299.214	171.12
299.445	172.12
299.675	187.12
299.905	182.12
300.136	187.12
300.366	193.12
300.597	186.12
300.827	187.12
301.057	193.12
301.288	183.12
301.518	194.12
301.748	185.12
301.979	177.12
302.209	202.12
302.439	196.12
302.669	183.12
302.9	179.12
303.13	196.12
303.36	185.12
303.59	198.12
303.82	204.12
304.051	186.12
304.281	182.12
304.511	188.12
304.741	185.12
304.971	183.12
305.201	180.12
305.431	189.12
305.661	181.12
305.891	173.12
306.121	180.12
306.352	198.12
306.582	186.12
306.812	186.12
307.042	192.12
307.272	198.12
307.502	180.12
307.731	193.12
307.961	181.12
308.191	181.12
308.421	199.12
308.651	180.12
308.881	198.12
309.111	200.12
309.341	193.12
309.571	187.12
309.8	216.12
310.03	198.12
310.26	202.12
310.49	197.12
310.72	205.12
310.949	212.12
311.179	235.12
311.409	234.12
311.639	202.12
311.868	206.12
312.098	217.12
312.328	220.12
312.557	224.12
312.787	235.12
313.017	223.12
313.246	195.12
313.476	218.12
313.706	213.12
313.935	186.12
314.165	222.12
314.394	207.12
314.624	207.12
314.853	207.12
315.083	221.12
315.312	214.12
315.542	218.12
315.771	210.12
316.001	198.12
316.23	215.12
316.46	204.12
316.689	217.12
316.919	203.12
317.148	233.12
317.377	218.12
317.607	198.12
317.836	209.12
318.065	198.12
318.295	207.12
318.524	199.12
318.753	216.12
318.983	221.12
319.212	221.12
319.441	215.12
319.67	208.12
319.9	202.12
320.129	191.12
320.358	210.12
320.587	214.12
320.816	195.12
321.046	219.12
321.275	220.12
321.504	214.12
321.733	199.12
321.962	209.12
322.191	218.12
322.42	207.12
322.649	232.12
322.878	236.12
323.108	246.12
323.337	253.12
323.566	265.12
323.795	281.12
324.024	284.12
324.253	361.12
324.482	503.12
324.71	755.12
324.939	1012.12
325.168	813.12
325.397	424.12
325.626	313.12
325.855	255.12
326.084	245.12
326.313	252.12
326.542	266.12
326.77	295.12
326.999	327.12
327.228	442.12
327.457	647.12
327.686	728.12
327.914	490.12
328.143	338.12
328.372	331.12
328.6	300.12
328.829	285.12
329.058	294.12
329.287	299.12
329.515	278.12
329.744	262.12
329.972	281.12
330.201	293.12
330.43	303.12
330.658	314.12
330.887	341.12
331.115	321.12
331.344	275.12
331.572	243.12
331.801	254.12
332.03	263.12
332.258	226.12
332.486	229.12
332.715	234.12
332.943	219.12
333.172	238.12
333.4	227.12
333.629	233.12
333.857	247.12
334.085	245.12
334.314	290.12
334.542	305.12
334.771	312.12
334.999	265.12
335.227	251.12
335.455	260.12
335.684	238.12
335.912	224.12
336.14	222.12
336.369	223.12
336.597	243.12
336.825	236.12
337.053	230.12
337.281	233.12
337.51	216.12
337.738	218.12
337.966	233.12
338.194	225.12
338.422	231.12
338.65	219.12
338.878	213.12
339.106	218.12
339.334	223.12
339.562	219.12
339.79	242.12
340.018	221.12
340.246	213.12
340.474	229.12
340.702	209.12
340.93	247.12
341.158	221.12
341.386	229.12
341.614	236.12
341.842	227.12
342.07	225.12
342.298	231.12
342.526	206.12
342.754	207.12
342.981	222.12
343.209	213.12
343.437	222.12
343.665	232.12
343.893	222.12
344.12	238.12
344.348	233.12
344.576	231.12
344.804	222.12
345.031	235.12
345.259	215.12
345.487	236.12
345.714	225.12
345.942	246.12
346.17	219.12
346.397	208.12
346.625	227.12
346.853	217.12
347.08	213.12
347.308	207.12
347.535	213.12
347.763	215.12
347.99	229.12
348.218	228.12
348.445	239.12
348.673	257.12
348.9	232.12
349.128	221.12
349.355	227.12
349.583	208.12
349.81	200.12
350.037	209.12
350.265	218.12
350.492	197.12
350.72	213.12
350.947	220.12
351.174	205.12
351.402	217.12
351.629	218.12
351.856	217.12
352.083	223.12
352.311	234.12
352.538	224.12
352.765	223.12
352.992	227.12
353.22	218.12
353.447	220.12
353.674	210.12
353.901	227.12
354.128	214.12
354.355	192.12
354.583	200.12
354.81	204.12
355.037	216.12
355.264	214.12
355.491	189.12
355.718	209.12
355.945	193.12
356.172	183.12
356.399	193.12
356.626	196.12
356.853	202.12
357.08	192.12
357.307	214.12
357.534	196.12
357.761	202.12
357.988	209.12
358.215	207.12
358.441	197.12
358.668	220.12
358.895	207.12
359.122	201.12
359.349	216.12
359.576	228.12
359.802	225.12
360.029	250.12
360.256	265.12
360.483	229.12
360.709	216.12
360.936	213.12
361.163	211.12
361.39	222.12
361.616	217.12
361.843	217.12
362.07	212.12
362.296	222.12
362.523	210.12
362.749	224.12
362.976	193.12
363.203	210.12
363.429	195.12
363.656	215.12
363.882	218.12
364.109	206.12
364.335	205.12
364.562	191.12
364.788	205.12
365.015	205.12
365.241	208.12
365.468	203.12
365.694	200.12
365.92	203.12
366.147	222.12
366.373	217.12
366.599	210.12
366.826	198.12
367.052	202.12
367.278	208.12
367.505	222.12
367.731	214.12
367.957	218.12
368.184	196.12
368.41	213.12
368.636	226.12
368.862	220.12
369.089	197.12
369.315	221.12
369.541	194.12
369.767	210.12
369.993	218.12
370.219	203.12
370.445	197.12
370.672	207.12
370.898	182.12
371.124	211.12
371.35	212.12
371.576	213.12
371.802	203.12
372.028	202.12
372.254	195.12
372.48	195.12
372.706	201.12
372.932	212.12
373.158	213.12
373.384	212.12
373.61	216.12
373.835	199.12
374.061	213.12
374.287	213.12
374.513	203.12
374.739	200.12
374.965	216.12
375.191	201.12
375.416	213.12
375.642	211.12
375.868	193.12
376.094	209.12
376.319	202.12
376.545	207.12
376.771	203.12
376.997	203.12
377.222	195.12
377.448	210.12
377.674	204.12
377.899	203.12
378.125	214.12
378.35	224.12
378.576	204.12
378.802	206.12
379.027	193.12
379.253	206.12
379.478	193.12
379.704	211.12
379.929	212.12
380.155	207.12
380.38	202.12
380.606	209.12
380.831	206.12
381.057	209.12
381.282	203.12
381.507	213.12
381.733	211.12
381.958	201.12
382.184	205.12
382.409	198.12
382.634	215.12
382.86	212.12
383.085	200.12
383.31	232.12
383.535	220.12
383.761	224.12
383.986	222.12
384.211	214.12
384.436	223.12
384.662	201.12
384.887	226.12
385.112	217.12
385.337	212.12
385.562	210.12
385.787	229.12
386.013	244.12
386.238	237.12
386.463	230.12
386.688	234.12
386.913	210.12
387.138	228.12
387.363	228.12
387.588	221.12
387.813	214.12
388.038	222.12
388.263	212.12
388.488	219.12
388.713	214.12
388.938	214.12
389.163	220.12
389.387	233.12
389.612	225.12
389.837	213.12
390.062	220.12
390.287	226.12
390.512	219.12
390.736	229.12
390.961	214.12
391.186	235.12
391.411	210.12
391.636	221.12
391.86	225.12
392.085	236.12
392.31	227.12
392.534	235.12
392.759	232.12
392.984	233.12
393.208	225.12
393.433	218.12
393.658	231.12
393.882	220.12
394.107	221.12
394.331	237.12
394.556	226.12
394.78	216.12
395.005	218.12
395.229	217.12
395.454	230.12
395.678	238.12
395.903	236.12
396.127	237.12
396.352	242.12
396.576	221.12
396.801	214.12
397.025	225.12
397.249	244.12
397.474	263.12
397.698	220.12
397.922	253.12
398.147	244.12
398.371	246.12
398.595	234.12
398.82	248.12
399.044	235.12
399.268	255.12
399.492	268.12
399.717	271.12
399.941	300.12
400.165	302.12
400.389	287.12
400.613	274.12
400.837	252.12
401.062	252.12
401.286	268.12
401.51	246.12
401.734	256.12
401.958	246.12
402.182	259.12
402.406	279.12
402.63	269.12
402.854	241.12
403.078	256.12
403.302	237.12
403.526	248.12
403.75	269.12
403.974	262.12
404.198	252.12
404.422	245.12
404.645	279.12
404.869	279.12
405.093	278.12
405.317	300.12
405.541	302.12
405.765	278.12
405.988	264.12
406.212	279.12
406.436	300.12
406.66	299.12
406.883	293.12
407.107	309.12
407.331	285.12
407.555	325.12
407.778	340.12
408.002	296.12
408.226	292.12
408.449	274.12
408.673	275.12
408.896	287.12
409.12	302.12
409.344	276.12
409.567	262.12
409.791	265.12
410.014	267.12
410.238	257.12
410.461	255.12
410.685	274.12
410.908	276.12
411.132	308.12
411.355	295.12
411.578	292.12
411.802	267.12
412.025	245.12
412.249	266.12
412.472	273.12
412.695	287.12
412.919	283.12
413.142	254.12
413.365	246.12
413.589	257.12
413.812	269.12
414.035	242.12
414.258	246.12
414.482	248.12
414.705	236.12
414.928	233.12
415.151	265.12
415.374	247.12
415.597	248.12
415.821	244.12
416.044	223.12
416.267	248.12
416.49	228.12
416.713	250.12
416.936	269.12
417.159	232.12
417.382	260.12
417.605	267.12
417.828	283.12
418.051	269.12
418.274	254.12
418.497	236.12
418.72	251.12
418.943	258.12
419.166	253.12
419.389	277.12
419.611	253.12
419.834	266.12
420.057	261.12
420.28	258.12
420.503	251.12
420.726	246.12
420.948	255.12
421.171	292.12
421.394	280.12
421.617	252.12
421.839	263.12
422.062	249.12
422.285	266.12
422.507	283.12
422.73	323.12
422.953	294.12
423.175	275.12
423.398	283.12
423.621	285.12
423.843	281.12
424.066	280.12
424.288	278.12
424.511	293.12
424.733	302.12
424.956	323.12
425.178	321.12
425.401	313.12
425.623	330.12
425.846	286.12
426.068	279.12
426.291	271.12
426.513	272.12
426.735	269.12
426.958	303.12
427.18	327.12
427.402	378.12
427.625	418.12
427.847	361.12
428.069	325.12
428.292	283.12
428.514	253.12
428.736	249.12
428.958	241.12
429.181	267.12
429.403	262.12
429.625	249.12
429.847	267.12
430.069	326.12
430.292	292.12
430.514	259.12
430.736	274.12
430.958	256.12
431.18	255.12
431.402	254.12
431.624	245.12
431.846	244.12
432.068	257.12
432.29	243.12
432.512	257.12
432.734	259.12
432.956	225.12
433.178	253.12
433.4	248.12
433.622	226.12
433.844	229.12
434.066	244.12
434.287	235.12
434.509	243.12
434.731	246.12
434.953	255.12
435.175	254.12
435.397	277.12
435.618	261.12
435.84	282.12
436.062	331.12
436.284	370.12
436.505	275.12
436.727	267.12
436.949	264.12
437.17	238.12
437.392	240.12
437.614	259.12
437.835	274.12
438.057	341.12
438.278	363.12
438.5	368.12
438.721	371.12
438.943	369.12
439.165	303.12
439.386	305.12
439.608	266.12
439.829	269.12
440.05	287.12
440.272	314.12
440.493	278.12
440.715	282.12
440.936	277.12
441.158	251.12
441.379	246.12
441.6	263.12
441.822	270.12
442.043	310.12
442.264	326.12
442.486	358.12
442.707	297.12
442.928	261.12
443.149	282.12
443.371	293.12
443.592	317.12
443.813	329.12
444.034	354.12
444.255	313.12
444.476	287.12
444.698	259.12
444.919	273.12
445.14	364.12
445.361	328.12
445.582	301.12
445.803	346.12
446.024	354.12
446.245	379.12
446.466	329.12
446.687	284.12
446.908	265.12
447.129	258.12
447.35	242.12
447.571	258.12
447.792	252.12
448.013	271.12
448.234	274.12
448.455	297.12
448.675	331.12
448.896	369.12
449.117	306.12
449.338	309.12
449.559	365.12
449.779	389.12
450	311.12
450.221	268.12
450.442	265.12
450.662	246.12
450.883	263.12
451.104	261.12
451.324	259.12
451.545	259.12
451.766	235.12
451.986	243.12
452.207	223.12
452.428	228.12
452.648	221.12
452.869	238.12
453.089	228.12
453.31	246.12
453.53	236.12
453.751	233.12
453.971	236.12
454.192	246.12
454.412	246.12
454.633	218.12
454.853	235.12
455.073	237.12
455.294	251.12
455.514	263.12
455.734	263.12
455.955	230.12
456.175	221.12
456.395	222.12
456.616	207.12
456.836	237.12
457.056	218.12
457.276	215.12
457.497	207.12
457.717	211.12
457.937	231.12
458.157	207.12
458.377	234.12
458.598	236.12
458.818	262.12
459.038	310.12
459.258	310.12
459.478	272.12
459.698	237.12
459.918	217.12
460.138	257.12
460.358	233.12
460.578	272.12
460.798	265.12
461.018	245.12
461.238	249.12
461.458	233.12
461.678	233.12
461.898	210.12
462.118	236.12
462.338	242.12
462.558	250.12
462.777	271.12
462.997	264.12
463.217	264.12
463.437	275.12
463.657	251.12
463.876	254.12
464.096	272.12
464.316	259.12
464.536	272.12
464.755	281.12
464.975	265.12
465.195	320.12
465.414	364.12
465.634	280.12
465.854	249.12
466.073	248.12
466.293	228.12
466.512	245.12
466.732	233.12
466.951	244.12
467.171	226.12
467.391	248.12
467.61	258.12
467.829	253.12
468.049	262.12
468.268	257.12
468.488	233.12
468.707	229.12
468.927	240.12
469.146	239.12
469.365	234.12
469.585	234.12
469.804	237.12
470.023	242.12
470.243	247.12
470.462	255.12
470.681	267.12
470.901	258.12
471.12	242.12
471.339	261.12
471.558	245.12
471.777	232.12
471.997	228.12
472.216	244.12
472.435	276.12
472.654	258.12
472.873	232.12
473.092	236.12
473.311	236.12
473.53	232.12
473.749	246.12
473.968	275.12
474.187	321.12
474.406	310.12
474.625	245.12
474.844	245.12
475.063	245.12
475.282	252.12
475.501	236.12
475.72	251.12
475.939	254.12
476.158	257.12
476.377	244.12
476.596	246.12
476.814	241.12
477.033	248.12
477.252	265.12
477.471	269.12
477.69	244.12
477.908	257.12
478.127	254.12
478.346	247.12
478.564	267.12
478.783	270.12
479.002	269.12
479.22	284.12
479.439	279.12
479.658	281.12
479.876	274.12
480.095	290.12
480.313	298.12
480.532	301.12
480.751	293.12
480.969	294.12
481.188	331.12
481.406	374.12
481.624	307.12
481.843	297.12
482.061	277.12
482.28	271.12
482.498	282.12
482.717	272.12
482.935	284.12
483.153	276.12
483.372	270.12
483.59	269.12
483.808	288.12
484.027	281.12
484.245	269.12
484.463	280.12
484.681	289.12
484.9	277.12
485.118	301.12
485.336	274.12
485.554	292.12
485.772	283.12
485.99	285.12
486.209	277.12
486.427	282.12
486.645	302.12
486.863	306.12
487.081	306.12
487.299	295.12
487.517	283.12
487.735	298.12
487.953	292.12
488.171	316.12
488.389	294.12
488.607	275.12
488.825	281.12
489.043	309.12
489.261	290.12
489.479	284.12
489.696	289.12
489.914	293.12
490.132	307.12
490.35	286.12
490.568	307.12
490.786	297.12
491.003	318.12
491.221	329.12
491.439	320.12
491.657	342.12
491.874	343.12
492.092	373.12
492.31	366.12
492.527	353.12
492.745	351.12
492.963	354.12
493.18	348.12
493.398	351.12
493.615	366.12
493.833	338.12
494.05	350.12
494.268	340.12
494.485	334.12
494.703	353.12
494.92	350.12
495.138	349.12
495.355	354.12
495.573	354.12
495.79	362.12
496.008	354.12
496.225	338.12
496.442	321.12
496.66	339.12
496.877	325.12
497.094	352.12
497.312	358.12
497.529	333.12
497.746	349.12
497.963	347.12
498.181	366.12
498.398	362.12
498.615	367.12
498.832	375.12
499.049	394.12
499.267	385.12
499.484	421.12
499.701	411.12
499.918	432.12
500.135	435.12
500.352	454.12
500.569	446.12
500.786	462.12
501.003	429.12
501.22	450.12
501.437	442.12
501.654	415.12
501.871	406.12
502.088	429.12
502.305	376.12
502.522	371.12
502.739	370.12
502.956	350.12
503.172	344.12
503.389	366.12
503.606	363.12
503.823	333.12
504.04	358.12
504.256	349.12
504.473	334.12
504.69	339.12
504.907	342.12
505.123	329.12
505.34	335.12
505.557	337.12
505.773	331.12
505.99	321.12
506.207	334.12
506.423	319.12
506.64	326.12
506.856	305.12
507.073	315.12
507.289	310.12
507.506	308.12
507.722	313.12
507.939	327.12
508.155	330.12
508.372	310.12
508.588	313.12
508.805	321.12
509.021	317.12
509.238	308.12
509.454	322.12
509.67	330.12
509.887	330.12
510.103	318.12
510.319	313.12
510.536	391.12
510.752	739.12
510.968	522.12
511.184	329.12
511.401	322.12
511.617	308.12
511.833	307.12
512.049	290.12
512.265	291.12
512.481	282.12
512.698	284.12
512.914	289.12
513.13	309.12
513.346	285.12
513.562	303.12
513.778	283.12
513.994	280.12
514.21	293.12
514.426	321.12
514.642	337.12
514.858	358.12
515.074	374.12
515.29	484.12
515.506	798.12
515.721	603.12
515.937	372.12
516.153	332.12
516.369	310.12
516.585	312.12
516.801	295.12
517.016	302.12
517.232	297.12
517.448	313.12
517.664	305.12
517.879	291.12
518.095	299.12
518.311	302.12
518.527	279.12
518.742	292.12
518.958	285.12
519.173	279.12
519.389	297.12
519.605	293.12
519.82	294.12
520.036	299.12
520.251	310.12
520.467	327.12
520.682	338.12
520.898	323.12
521.113	325.12
521.329	373.12
521.544	421.12
521.76	563.12
521.975	1102.12
522.19	1029.12
522.406	507.12
522.621	376.12
522.836	317.12
523.052	286.12
523.267	271.12
523.482	270.12
523.698	282.12
523.913	276.12
524.128	295.12
524.343	271.12
524.559	263.12
524.774	264.12
524.989	244.12
525.204	276.12
525.419	268.12
525.634	279.12
525.849	271.12
526.064	248.12
526.28	245.12
526.495	239.12
526.71	241.12
526.925	245.12
527.14	232.12
527.355	225.12
527.57	245.12
527.785	243.12
527.999	242.12
528.214	245.12
528.429	235.12
528.644	263.12
528.859	234.12
529.074	244.12
529.289	261.12
529.503	329.12
529.718	303.12
529.933	250.12
530.148	262.12
530.363	248.12
530.577	249.12
530.792	239.12
531.007	232.12
531.221	249.12
531.436	235.12
531.651	234.12
531.865	241.12
532.08	225.12
532.295	236.12
532.509	236.12
532.724	243.12
532.938	237.12
533.153	249.12
533.367	242.12
533.582	234.12
533.796	239.12
534.011	219.12
534.225	225.12
534.44	235.12
534.654	241.12
534.868	243.12
535.083	249.12
535.297	227.12
535.511	234.12
535.726	263.12
535.94	261.12
536.154	233.12
536.369	224.12
536.583	228.12
536.797	236.12
537.011	228.12
537.225	235.12
537.44	227.12
537.654	227.12
537.868	227.12
538.082	236.12
538.296	218.12
538.51	229.12
538.724	222.12
538.938	236.12
539.153	219.12
539.367	233.12
539.581	221.12
539.795	234.12
540.009	219.12
540.222	221.12
540.436	244.12
540.65	241.12
540.864	246.12
541.078	237.12
541.292	213.12
541.506	239.12
541.72	241.12
541.934	204.12
542.147	247.12
542.361	236.12
542.575	218.12
542.789	223.12
543.002	233.12
543.216	244.12
543.43	242.12
543.644	258.12
543.857	230.12
544.071	236.12
544.285	246.12
544.498	244.12
544.712	208.12
544.925	224.12
545.139	217.12
545.352	243.12
545.566	222.12
545.779	223.12
545.993	231.12
546.206	242.12
546.42	227.12
546.633	232.12
546.847	225.12
547.06	225.12
547.274	229.12
547.487	214.12
547.7	226.12
547.914	225.12
548.127	229.12
548.34	208.12
548.554	222.12
548.767	213.12
548.98	223.12
549.193	215.12
549.407	228.12
549.62	220.12
549.833	207.12
550.046	235.12
550.259	217.12
550.473	204.12
550.686	198.12
550.899	221.12
551.112	222.12
551.325	205.12
551.538	212.12
551.751	225.12
551.964	210.12
552.177	217.12
552.39	198.12
552.603	215.12
552.816	215.12
553.029	211.12
553.242	223.12
553.455	224.12
553.667	238.12
553.88	244.12
554.093	226.12
554.306	229.12
554.519	216.12
554.732	228.12
554.944	215.12
555.157	222.12
555.37	198.12
555.583	217.12
555.795	218.12
556.008	211.12
556.221	212.12
556.433	190.12
556.646	203.12
556.859	225.12
557.071	221.12
557.284	221.12
557.496	209.12
557.709	197.12
557.921	211.12
558.134	201.12
558.346	198.12
558.559	190.12
558.771	194.12
558.984	186.12
559.196	194.12
559.409	188.12
559.621	195.12
559.833	181.12
560.046	186.12
560.258	205.12
560.47	203.12
560.683	194.12
560.895	182.12
561.107	192.12
561.32	193.12
561.532	197.12
561.744	204.12
561.956	197.12
562.168	196.12
562.381	202.12
562.593	198.12
562.805	204.12
563.017	213.12
563.229	216.12
563.441	207.12
563.653	204.12
563.865	212.12
564.077	196.12
564.289	209.12
564.501	193.12
564.713	203.12
564.925	216.12
565.137	211.12
565.349	197.12
565.561	215.12
565.773	201.12
565.985	210.12
566.197	217.12
566.408	218.12
566.62	223.12
566.832	221.12
567.044	232.12
567.255	245.12
567.467	226.12
567.679	235.12
567.891	254.12
568.102	229.12
568.314	228.12
568.526	234.12
568.737	248.12
568.949	208.12
569.161	203.12
569.372	197.12
569.584	214.12
569.795	200.12
570.007	202.12
570.218	221.12
570.43	232.12
570.641	193.12
570.853	204.12
571.064	201.12
571.276	193.12
571.487	185.12
571.698	199.12
571.91	187.12
572.121	192.12
572.333	192.12
572.544	169.12
572.755	187.12
572.966	177.12
573.178	179.12
573.389	184.12
573.6	185.12
573.811	172.12
574.023	197.12
574.234	184.12
574.445	175.12
574.656	166.12
574.867	183.12
575.078	174.12
575.289	171.12
575.501	164.12
575.712	169.12
575.923	172.12
576.134	177.12
576.345	165.12
576.556	163.12
576.767	169.12
576.978	176.12
577.188	177.12
577.399	170.12
577.61	175.12
577.821	185.12
578.032	185.12
578.243	207.12
578.454	352.12
578.665	221.12
578.875	188.12
579.086	169.12
579.297	166.12
579.508	173.12
579.718	160.12
579.929	173.12
580.14	179.12
580.35	162.12
580.561	174.12
580.772	180.12
580.982	169.12
581.193	169.12
581.403	165.12
581.614	161.12
581.825	156.12
582.035	150.12
582.246	161.12
582.456	168.12
582.667	165.12
582.877	156.12
583.087	156.12
583.298	161.12
583.508	170.12
583.719	175.12
583.929	151.12
584.139	171.12
584.35	169.12
584.56	166.12
584.77	168.12
584.981	149.12
585.191	166.12
585.401	150.12
585.611	178.12
585.821	157.12
586.032	165.12
586.242	157.12
586.452	151.12
586.662	170.12
586.872	160.12
587.082	171.12
587.292	158.12
587.502	161.12
587.713	139.12
587.923	167.12
588.133	159.12
588.343	157.12
588.553	165.12
588.762	161.12
588.972	158.12
589.182	185.12
589.392	181.12
589.602	166.12
589.812	177.12
590.022	181.12
590.232	177.12
590.441	161.12
590.651	174.12
590.861	149.12
591.071	163.12
591.281	180.12
591.49	165.12
591.7	155.12
591.91	167.12
592.119	149.12
592.329	160.12
592.539	167.12
592.748	156.12
592.958	165.12
593.167	155.12
593.377	161.12
593.587	183.12
593.796	161.12
594.006	147.12
594.215	163.12
594.424	173.12
594.634	153.12
594.843	154.12
595.053	163.12
595.262	160.12
595.472	150.12
595.681	157.12
595.89	152.12
596.1	166.12
596.309	167.12
596.518	152.12
596.727	145.12
596.937	144.12
597.146	139.12
597.355	163.12
597.564	162.12
597.774	168.12
597.983	151.12
598.192	138.12
598.401	133.12
598.61	149.12
598.819	154.12
599.028	161.12
599.237	143.12
599.446	153.12
599.655	147.12
599.864	151.12
600.073	148.12
600.282	159.12
600.491	155.12
600.7	149.12
600.909	150.12
601.118	155.12
601.327	142.12
601.536	163.12
601.745	143.12
601.953	140.12
602.162	142.12
602.371	135.12
602.58	136.12
602.789	142.12
602.997	141.12
603.206	143.12
603.415	150.12
603.623	144.12
603.832	146.12
604.041	140.12
604.249	144.12
604.458	141.12
604.666	151.12
604.875	158.12
605.084	149.12
605.292	139.12
605.501	144.12
605.709	137.12
605.918	150.12
606.126	138.12
606.334	142.12
606.543	162.12
606.751	136.12
606.96	142.12
607.168	138.12
607.376	150.12
607.585	161.12
607.793	140.12
608.001	135.12
608.21	148.12
608.418	139.12
608.626	142.12
608.834	147.12
609.043	142.12
609.251	144.12
609.459	148.12
609.667	149.12
609.875	153.12
610.083	141.12
610.291	156.12
610.499	133.12
610.707	135.12
610.916	129.12
611.124	142.12
611.332	148.12
611.54	155.12
611.748	137.12
611.955	139.12
612.163	153.12
612.371	153.12
612.579	154.12
612.787	136.12
612.995	133.12
613.203	132.12
613.411	145.12
613.618	161.12
613.826	130.12
614.034	141.12
614.242	155.12
614.449	158.12
614.657	144.12
614.865	140.12
615.072	138.12
615.28	140.12
615.488	144.12
615.695	149.12
615.903	146.12
616.111	135.12
616.318	132.12
616.526	132.12
616.733	140.12
616.941	138.12
617.148	142.12
617.356	135.12
617.563	131.12
617.771	140.12
617.978	138.12
618.185	141.12
618.393	156.12
618.6	155.12
618.807	129.12
619.015	149.12
619.222	143.12
619.429	154.12
619.637	147.12
619.844	133.12
620.051	135.12
620.258	146.12
620.466	135.12
620.673	131.12
620.88	130.12
621.087	140.12
621.294	129.12
621.501	151.12
621.708	149.12
621.915	154.12
622.122	135.12
622.329	130.12
622.536	130.12
622.743	136.12
622.95	134.12
623.157	138.12
623.364	142.12
623.571	140.12
623.778	135.12
623.985	122.12
624.192	138.12
624.399	135.12
624.606	140.12
624.812	126.12
625.019	127.12
625.226	122.12
625.433	119.12
625.639	129.12
625.846	107.12
626.053	130.12
626.259	141.12
626.466	125.12
626.673	116.12
626.879	129.12
627.086	130.12
627.293	122.12
627.499	123.12
627.706	130.12
627.912	118.12
628.119	125.12
628.325	125.12
628.532	127.12
628.738	121.12
628.945	125.12
629.151	130.12
629.357	125.12
629.564	130.12
629.77	123.12
629.976	119.12
630.183	137.12
630.389	132.12
630.595	132.12
630.802	129.12
631.008	129.12
631.214	118.12
631.42	129.12
631.627	141.12
631.833	126.12
632.039	135.12
632.245	126.12
632.451	121.12
632.657	122.12
632.863	117.12
633.069	120.12
633.275	125.12
633.481	118.12
633.688	118.12
633.893	132.12
634.099	121.12
634.305	117.12
634.511	111.12
634.717	115.12
634.923	105.12
635.129	118.12
635.335	107.12
635.541	120.12
635.747	126.12
635.952	130.12
636.158	112.12
636.364	141.12
636.57	119.12
636.775	116.12
636.981	120.12
637.187	122.12
637.392	116.12
637.598	119.12
637.804	121.12
638.009	120.12
638.215	114.12
638.421	100.12
638.626	118.12
638.832	121.12
639.037	127.12
639.243	127.12
639.448	115.12
639.654	117.12
639.859	127.12
640.065	143.12
640.27	122.12
640.475	113.12
640.681	113.12
640.886	120.12
641.091	123.12
641.297	106.12
641.502	108.12
641.707	105.12
641.913	129.12
642.118	123.12
642.323	118.12
642.528	122.12
642.733	122.12
642.939	115.12
643.144	110.12
643.349	115.12
643.554	108.12
643.759	113.12
643.964	122.12
644.169	121.12
644.374	126.12
644.579	130.12
644.784	122.12
644.989	118.12
645.194	117.12
645.399	110.12
645.604	106.12
645.809	125.12
646.014	128.12
646.219	130.12
646.423	119.12
646.628	108.12
646.833	121.12
647.038	124.12
647.243	123.12
647.447	127.12
647.652	129.12
647.857	122.12
648.062	108.12
648.266	114.12
648.471	129.12
648.676	116.12
648.88	108.12
649.085	121.12
649.289	125.12
649.494	102.12
649.698	133.12
649.903	134.12
650.107	131.12
650.312	114.12
650.516	105.12
650.721	108.12
650.925	98.12
651.13	91.12
651.334	115.12
651.539	105.12
651.743	103.12
651.947	109.12
652.152	114.12
652.356	114.12
652.56	103.12
652.764	103.12
652.969	107.12
653.173	100.12
653.377	104.12
653.581	100.12
653.785	104.12
653.99	107.12
654.194	105.12
654.398	108.12
654.602	95.12
654.806	107.12
655.01	125.12
655.214	104.12
655.418	108.12
655.622	110.12
655.826	106.12
656.03	99.12
656.234	107.12
656.438	118.12
656.642	117.12
656.846	104.12
657.049	101.12
657.253	109.12
657.457	122.12
657.661	95.12
657.865	77.12
658.068	95.12
658.272	107.12
658.476	99.12
658.68	105.12
658.883	87.12
659.087	99.12
659.291	89.12
659.494	88.12
659.698	84.12
659.901	91.12
660.105	83.12
660.309	92.12
660.512	90.12
660.716	103.12
660.919	85.12
661.123	76.12
661.326	94.12
661.53	74.12
661.733	93.12
661.936	92.12
662.14	89.12
662.343	74.12
662.546	86.12
662.75	85.12
662.953	84.12
663.156	79.12
663.36	104.12
663.563	79.12
663.766	75.12
663.969	68.12
664.173	79.12
664.376	89.12
664.579	87.12
664.782	85.12
664.985	89.12
665.188	94.12
665.391	86.12
665.594	73.12
665.797	73.12
666	76.12
666.203	86.12
666.406	103.12
666.609	95.12
666.812	75.12
667.015	83.12
667.218	68.12
667.421	81.12
667.624	92.12
667.827	99.12
668.03	89.12
668.232	81.12
668.435	83.12
668.638	89.12
668.841	86.12
669.043	79.12
669.246	69.12
669.449	71.12
669.651	81.12
669.854	81.12
670.057	88.12
670.259	90.12
670.462	91.12
670.665	82.12
670.867	88.12
671.07	80.12
671.272	91.12
671.475	83.12
671.677	69.12
671.88	78.12
672.082	77.12
672.284	91.12
672.487	87.12
672.689	89.12
672.892	76.12
