Data from 1968.PennyLincolnUp.Lamp.En5.5.200Scan.071719.P1._HRD10591_14-51-57-970.txt Node
Date: Thu Jul 18 14:51:57 EDT 2019
User: cochatt
Spectrometer: HR+D1059
Trigger mode: 1
Integration Time (sec): 1.000000E-1
Scans to average: 1
Electric dark correction enabled: true
Nonlinearity correction enabled: false
Boxcar width: 0
XAxis mode: Wavelengths
Number of Pixels in Spectrum: 2048
>>>>>Begin Spectral Data<<<<<
223.165	-17.56
223.4	-17.56
223.635	-17.56
223.869	-10.56
224.104	-23.56
224.338	-11.56
224.573	-1.56
224.808	-8.56
225.042	-6.56
225.277	-11.56
225.511	2.44
225.746	7.44
225.98	8.44
226.215	-7.56
226.449	3.44
226.683	14.44
226.918	25.44
227.152	37.44
227.387	31.44
227.621	33.44
227.856	42.44
228.09	25.44
228.324	41.44
228.559	41.44
228.793	39.44
229.027	60.44
229.262	54.44
229.496	80.44
229.73	69.44
229.964	76.44
230.199	85.44
230.433	78.44
230.667	81.44
230.901	88.44
231.136	84.44
231.37	76.44
231.604	77.44
231.838	79.44
232.072	91.44
232.306	89.44
232.541	72.44
232.775	89.44
233.009	93.44
233.243	79.44
233.477	87.44
233.711	88.44
233.945	81.44
234.179	84.44
234.413	80.44
234.647	78.44
234.881	87.44
235.115	102.44
235.349	78.44
235.583	88.44
235.817	79.44
236.051	94.44
236.285	73.44
236.519	93.44
236.753	88.44
236.987	85.44
237.221	77.44
237.455	83.44
237.689	81.44
237.922	79.44
238.156	70.44
238.39	78.44
238.624	83.44
238.858	83.44
239.091	81.44
239.325	73.44
239.559	83.44
239.793	89.44
240.027	78.44
240.26	90.44
240.494	82.44
240.728	82.44
240.961	68.44
241.195	84.44
241.429	95.44
241.662	91.44
241.896	91.44
242.13	66.44
242.363	77.44
242.597	67.44
242.83	82.44
243.064	87.44
243.298	81.44
243.531	70.44
243.765	78.44
243.998	78.44
244.232	93.44
244.465	88.44
244.699	85.44
244.932	97.44
245.166	85.44
245.399	90.44
245.633	79.44
245.866	86.44
246.099	68.44
246.333	80.44
246.566	89.44
246.8	80.44
247.033	88.44
247.266	84.44
247.5	77.44
247.733	67.44
247.966	74.44
248.2	88.44
248.433	85.44
248.666	90.44
248.899	83.44
249.133	91.44
249.366	85.44
249.599	78.44
249.832	85.44
250.066	78.44
250.299	84.44
250.532	96.44
250.765	98.44
250.998	98.44
251.231	90.44
251.465	68.44
251.698	92.44
251.931	85.44
252.164	104.44
252.397	83.44
252.63	93.44
252.863	77.44
253.096	82.44
253.329	79.44
253.562	87.44
253.795	109.44
254.028	83.44
254.261	90.44
254.494	95.44
254.727	83.44
254.96	104.44
255.193	91.44
255.426	76.44
255.659	88.44
255.892	87.44
256.124	93.44
256.357	82.44
256.59	90.44
256.823	91.44
257.056	82.44
257.289	84.44
257.521	87.44
257.754	89.44
257.987	77.44
258.22	85.44
258.452	93.44
258.685	93.44
258.918	83.44
259.151	90.44
259.383	93.44
259.616	105.44
259.849	89.44
260.081	96.44
260.314	91.44
260.547	87.44
260.779	101.44
261.012	103.44
261.244	102.44
261.477	92.44
261.71	93.44
261.942	86.44
262.175	80.44
262.407	101.44
262.64	99.44
262.872	103.44
263.105	87.44
263.337	96.44
263.57	96.44
263.802	82.44
264.035	84.44
264.267	84.44
264.499	87.44
264.732	101.44
264.964	77.44
265.197	97.44
265.429	82.44
265.661	89.44
265.894	90.44
266.126	84.44
266.358	96.44
266.591	95.44
266.823	103.44
267.055	98.44
267.287	93.44
267.52	93.44
267.752	100.44
267.984	98.44
268.216	95.44
268.448	104.44
268.681	88.44
268.913	87.44
269.145	91.44
269.377	86.44
269.609	105.44
269.841	90.44
270.073	85.44
270.306	86.44
270.538	106.44
270.77	101.44
271.002	86.44
271.234	106.44
271.466	98.44
271.698	106.44
271.93	102.44
272.162	84.44
272.394	90.44
272.626	103.44
272.858	84.44
273.09	86.44
273.322	103.44
273.553	106.44
273.785	102.44
274.017	100.44
274.249	104.44
274.481	103.44
274.713	103.44
274.945	96.44
275.176	104.44
275.408	96.44
275.64	89.44
275.872	92.44
276.104	102.44
276.335	98.44
276.567	100.44
276.799	92.44
277.031	108.44
277.262	91.44
277.494	86.44
277.726	89.44
277.957	101.44
278.189	87.44
278.421	88.44
278.652	99.44
278.884	94.44
279.115	89.44
279.347	101.44
279.579	72.44
279.81	88.44
280.042	106.44
280.273	92.44
280.505	105.44
280.736	101.44
280.968	109.44
281.199	90.44
281.431	91.44
281.662	99.44
281.894	91.44
282.125	96.44
282.356	89.44
282.588	101.44
282.819	103.44
283.051	100.44
283.282	101.44
283.513	94.44
283.745	98.44
283.976	93.44
284.207	81.44
284.439	109.44
284.67	105.44
284.901	92.44
285.132	87.44
285.364	94.44
285.595	95.44
285.826	105.44
286.057	95.44
286.288	91.44
286.52	88.44
286.751	98.44
286.982	98.44
287.213	103.44
287.444	100.44
287.675	88.44
287.906	97.44
288.138	94.44
288.369	107.44
288.6	97.44
288.831	99.44
289.062	101.44
289.293	110.44
289.524	102.44
289.755	89.44
289.986	99.44
290.217	98.44
290.448	97.44
290.679	105.44
290.91	105.44
291.141	99.44
291.371	112.44
291.602	98.44
291.833	98.44
292.064	89.44
292.295	102.44
292.526	109.44
292.757	109.44
292.987	108.44
293.218	101.44
293.449	95.44
293.68	107.44
293.91	107.44
294.141	92.44
294.372	104.44
294.603	101.44
294.833	105.44
295.064	97.44
295.295	94.44
295.525	103.44
295.756	112.44
295.987	96.44
296.217	107.44
296.448	105.44
296.679	101.44
296.909	106.44
297.14	95.44
297.37	119.44
297.601	101.44
297.831	88.44
298.062	104.44
298.292	101.44
298.523	116.44
298.753	105.44
298.984	119.44
299.214	98.44
299.445	92.44
299.675	105.44
299.905	103.44
300.136	105.44
300.366	111.44
300.597	96.44
300.827	97.44
301.057	112.44
301.288	100.44
301.518	96.44
301.748	107.44
301.979	99.44
302.209	108.44
302.439	110.44
302.669	101.44
302.9	114.44
303.13	99.44
303.36	95.44
303.59	94.44
303.82	111.44
304.051	110.44
304.281	107.44
304.511	102.44
304.741	96.44
304.971	112.44
305.201	96.44
305.431	121.44
305.661	100.44
305.891	106.44
306.121	97.44
306.352	119.44
306.582	117.44
306.812	109.44
307.042	101.44
307.272	109.44
307.502	98.44
307.731	97.44
307.961	118.44
308.191	98.44
308.421	122.44
308.651	102.44
308.881	112.44
309.111	112.44
309.341	106.44
309.571	116.44
309.8	98.44
310.03	99.44
310.26	95.44
310.49	95.44
310.72	101.44
310.949	104.44
311.179	96.44
311.409	104.44
311.639	96.44
311.868	105.44
312.098	90.44
312.328	99.44
312.557	106.44
312.787	93.44
313.017	116.44
313.246	105.44
313.476	99.44
313.706	104.44
313.935	108.44
314.165	106.44
314.394	113.44
314.624	99.44
314.853	111.44
315.083	96.44
315.312	103.44
315.542	115.44
315.771	112.44
316.001	110.44
316.23	115.44
316.46	126.44
316.689	108.44
316.919	105.44
317.148	103.44
317.377	115.44
317.607	102.44
317.836	98.44
318.065	104.44
318.295	95.44
318.524	103.44
318.753	124.44
318.983	88.44
319.212	96.44
319.441	117.44
319.67	107.44
319.9	96.44
320.129	116.44
320.358	111.44
320.587	99.44
320.816	117.44
321.046	113.44
321.275	105.44
321.504	105.44
321.733	113.44
321.962	117.44
322.191	108.44
322.42	109.44
322.649	113.44
322.878	112.44
323.108	106.44
323.337	100.44
323.566	122.44
323.795	104.44
324.024	122.44
324.253	125.44
324.482	130.44
324.71	162.44
324.939	185.44
325.168	157.44
325.397	132.44
325.626	109.44
325.855	102.44
326.084	108.44
326.313	119.44
326.542	105.44
326.77	130.44
326.999	120.44
327.228	144.44
327.457	149.44
327.686	148.44
327.914	139.44
328.143	127.44
328.372	118.44
328.6	109.44
328.829	116.44
329.058	108.44
329.287	116.44
329.515	109.44
329.744	92.44
329.972	107.44
330.201	98.44
330.43	118.44
330.658	108.44
330.887	112.44
331.115	116.44
331.344	115.44
331.572	110.44
331.801	108.44
332.03	101.44
332.258	99.44
332.486	110.44
332.715	108.44
332.943	121.44
333.172	112.44
333.4	117.44
333.629	117.44
333.857	120.44
334.085	124.44
334.314	110.44
334.542	109.44
334.771	112.44
334.999	110.44
335.227	112.44
335.455	120.44
335.684	110.44
335.912	98.44
336.14	114.44
336.369	102.44
336.597	115.44
336.825	116.44
337.053	104.44
337.281	120.44
337.51	116.44
337.738	121.44
337.966	118.44
338.194	97.44
338.422	109.44
338.65	102.44
338.878	119.44
339.106	116.44
339.334	106.44
339.562	124.44
339.79	111.44
340.018	113.44
340.246	101.44
340.474	112.44
340.702	99.44
340.93	108.44
341.158	108.44
341.386	107.44
341.614	115.44
341.842	114.44
342.07	115.44
342.298	109.44
342.526	97.44
342.754	102.44
342.981	99.44
343.209	122.44
343.437	114.44
343.665	124.44
343.893	111.44
344.12	126.44
344.348	118.44
344.576	120.44
344.804	124.44
345.031	106.44
345.259	108.44
345.487	116.44
345.714	117.44
345.942	105.44
346.17	108.44
346.397	109.44
346.625	116.44
346.853	112.44
347.08	107.44
347.308	99.44
347.535	122.44
347.763	121.44
347.99	112.44
348.218	112.44
348.445	109.44
348.673	107.44
348.9	108.44
349.128	113.44
349.355	100.44
349.583	99.44
349.81	116.44
350.037	122.44
350.265	98.44
350.492	108.44
350.72	117.44
350.947	114.44
351.174	103.44
351.402	114.44
351.629	102.44
351.856	101.44
352.083	113.44
352.311	108.44
352.538	104.44
352.765	106.44
352.992	106.44
353.22	104.44
353.447	116.44
353.674	104.44
353.901	109.44
354.128	113.44
354.355	99.44
354.583	108.44
354.81	106.44
355.037	105.44
355.264	97.44
355.491	107.44
355.718	95.44
355.945	113.44
356.172	94.44
356.399	112.44
356.626	100.44
356.853	114.44
357.08	97.44
357.307	124.44
357.534	116.44
357.761	112.44
357.988	108.44
358.215	105.44
358.441	115.44
358.668	106.44
358.895	106.44
359.122	110.44
359.349	105.44
359.576	101.44
359.802	94.44
360.029	94.44
360.256	113.44
360.483	100.44
360.709	101.44
360.936	122.44
361.163	118.44
361.39	121.44
361.616	116.44
361.843	113.44
362.07	101.44
362.296	111.44
362.523	114.44
362.749	115.44
362.976	103.44
363.203	100.44
363.429	101.44
363.656	99.44
363.882	103.44
364.109	91.44
364.335	93.44
364.562	94.44
364.788	115.44
365.015	104.44
365.241	105.44
365.468	109.44
365.694	114.44
365.92	109.44
366.147	112.44
366.373	99.44
366.599	126.44
366.826	108.44
367.052	107.44
367.278	115.44
367.505	94.44
367.731	100.44
367.957	105.44
368.184	105.44
368.41	104.44
368.636	121.44
368.862	98.44
369.089	112.44
369.315	101.44
369.541	120.44
369.767	107.44
369.993	114.44
370.219	98.44
370.445	104.44
370.672	110.44
370.898	111.44
371.124	104.44
371.35	112.44
371.576	110.44
371.802	120.44
372.028	118.44
372.254	110.44
372.48	111.44
372.706	109.44
372.932	122.44
373.158	118.44
373.384	107.44
373.61	114.44
373.835	98.44
374.061	96.44
374.287	109.44
374.513	108.44
374.739	110.44
374.965	104.44
375.191	107.44
375.416	128.44
375.642	116.44
375.868	124.44
376.094	112.44
376.319	103.44
376.545	108.44
376.771	102.44
376.997	102.44
377.222	111.44
377.448	100.44
377.674	105.44
377.899	106.44
378.125	113.44
378.35	106.44
378.576	115.44
378.802	116.44
379.027	109.44
379.253	107.44
379.478	107.44
379.704	100.44
379.929	123.44
380.155	104.44
380.38	117.44
380.606	89.44
380.831	109.44
381.057	124.44
381.282	122.44
381.507	104.44
381.733	104.44
381.958	113.44
382.184	103.44
382.409	117.44
382.634	106.44
382.86	116.44
383.085	109.44
383.31	103.44
383.535	104.44
383.761	113.44
383.986	114.44
384.211	122.44
384.436	109.44
384.662	103.44
384.887	109.44
385.112	112.44
385.337	108.44
385.562	118.44
385.787	112.44
386.013	114.44
386.238	117.44
386.463	112.44
386.688	112.44
386.913	105.44
387.138	115.44
387.363	114.44
387.588	114.44
387.813	105.44
388.038	125.44
388.263	109.44
388.488	112.44
388.713	111.44
388.938	125.44
389.163	140.44
389.387	116.44
389.612	117.44
389.837	109.44
390.062	114.44
390.287	116.44
390.512	99.44
390.736	122.44
390.961	96.44
391.186	121.44
391.411	114.44
391.636	113.44
391.86	118.44
392.085	136.44
392.31	112.44
392.534	106.44
392.759	108.44
392.984	121.44
393.208	116.44
393.433	124.44
393.658	117.44
393.882	116.44
394.107	104.44
394.331	112.44
394.556	106.44
394.78	126.44
395.005	109.44
395.229	117.44
395.454	126.44
395.678	105.44
395.903	122.44
396.127	122.44
396.352	124.44
396.576	115.44
396.801	117.44
397.025	108.44
397.249	133.44
397.474	123.44
397.698	118.44
397.922	106.44
398.147	126.44
398.371	114.44
398.595	126.44
398.82	126.44
399.044	125.44
399.268	121.44
399.492	137.44
399.717	139.44
399.941	127.44
400.165	134.44
400.389	130.44
400.613	114.44
400.837	130.44
401.062	123.44
401.286	135.44
401.51	117.44
401.734	125.44
401.958	125.44
402.182	124.44
402.406	130.44
402.63	140.44
402.854	112.44
403.078	134.44
403.302	124.44
403.526	141.44
403.75	130.44
403.974	130.44
404.198	131.44
404.422	126.44
404.645	141.44
404.869	134.44
405.093	117.44
405.317	136.44
405.541	132.44
405.765	148.44
405.988	124.44
406.212	132.44
406.436	133.44
406.66	124.44
406.883	133.44
407.107	126.44
407.331	149.44
407.555	154.44
407.778	148.44
408.002	137.44
408.226	130.44
408.449	135.44
408.673	122.44
408.896	123.44
409.12	120.44
409.344	124.44
409.567	140.44
409.791	126.44
410.014	136.44
410.238	129.44
410.461	137.44
410.685	121.44
410.908	138.44
411.132	140.44
411.355	144.44
411.578	133.44
411.802	124.44
412.025	140.44
412.249	120.44
412.472	133.44
412.695	136.44
412.919	134.44
413.142	126.44
413.365	121.44
413.589	124.44
413.812	132.44
414.035	137.44
414.258	129.44
414.482	126.44
414.705	122.44
414.928	129.44
415.151	124.44
415.374	109.44
415.597	137.44
415.821	122.44
416.044	132.44
416.267	126.44
416.49	128.44
416.713	122.44
416.936	123.44
417.159	113.44
417.382	132.44
417.605	127.44
417.828	125.44
418.051	129.44
418.274	118.44
418.497	126.44
418.72	124.44
418.943	120.44
419.166	122.44
419.389	125.44
419.611	132.44
419.834	118.44
420.057	112.44
420.28	126.44
420.503	121.44
420.726	134.44
420.948	129.44
421.171	139.44
421.394	122.44
421.617	115.44
421.839	118.44
422.062	123.44
422.285	133.44
422.507	125.44
422.73	133.44
422.953	133.44
423.175	130.44
423.398	125.44
423.621	135.44
423.843	135.44
424.066	120.44
424.288	127.44
424.511	121.44
424.733	129.44
424.956	129.44
425.178	137.44
425.401	134.44
425.623	137.44
425.846	120.44
426.068	131.44
426.291	118.44
426.513	128.44
426.735	116.44
426.958	118.44
427.18	140.44
427.402	145.44
427.625	132.44
427.847	122.44
428.069	109.44
428.292	124.44
428.514	122.44
428.736	133.44
428.958	124.44
429.181	110.44
429.403	114.44
429.625	129.44
429.847	126.44
430.069	118.44
430.292	134.44
430.514	120.44
430.736	120.44
430.958	109.44
431.18	122.44
431.402	133.44
431.624	105.44
431.846	124.44
432.068	119.44
432.29	112.44
432.512	112.44
432.734	142.44
432.956	126.44
433.178	133.44
433.4	128.44
433.622	118.44
433.844	121.44
434.066	121.44
434.287	122.44
434.509	115.44
434.731	123.44
434.953	135.44
435.175	150.44
435.397	130.44
435.618	122.44
435.84	118.44
436.062	130.44
436.284	130.44
436.505	122.44
436.727	116.44
436.949	109.44
437.17	118.44
437.392	122.44
437.614	129.44
437.835	126.44
438.057	134.44
438.278	121.44
438.5	126.44
438.721	140.44
438.943	137.44
439.165	122.44
439.386	124.44
439.608	116.44
439.829	117.44
440.05	137.44
440.272	132.44
440.493	130.44
440.715	123.44
440.936	128.44
441.158	133.44
441.379	133.44
441.6	121.44
441.822	135.44
442.043	127.44
442.264	133.44
442.486	138.44
442.707	118.44
442.928	122.44
443.149	130.44
443.371	130.44
443.592	148.44
443.813	156.44
444.034	141.44
444.255	126.44
444.476	105.44
444.698	125.44
444.919	136.44
445.14	249.44
445.361	202.44
445.582	124.44
445.803	126.44
446.024	141.44
446.245	138.44
446.466	140.44
446.687	145.44
446.908	121.44
447.129	125.44
447.35	125.44
447.571	134.44
447.792	110.44
448.013	116.44
448.234	120.44
448.455	139.44
448.675	132.44
448.896	145.44
449.117	126.44
449.338	110.44
449.559	136.44
449.779	137.44
450	115.44
450.221	128.44
450.442	131.44
450.662	133.44
450.883	131.44
451.104	107.44
451.324	109.44
451.545	117.44
451.766	104.44
451.986	114.44
452.207	106.44
452.428	116.44
452.648	116.44
452.869	112.44
453.089	117.44
453.31	129.44
453.53	127.44
453.751	116.44
453.971	118.44
454.192	125.44
454.412	113.44
454.633	116.44
454.853	123.44
455.073	100.44
455.294	112.44
455.514	118.44
455.734	119.44
455.955	118.44
456.175	110.44
456.395	99.44
456.616	108.44
456.836	122.44
457.056	106.44
457.276	117.44
457.497	121.44
457.717	108.44
457.937	120.44
458.157	119.44
458.377	106.44
458.598	102.44
458.818	131.44
459.038	120.44
459.258	128.44
459.478	128.44
459.698	124.44
459.918	101.44
460.138	122.44
460.358	138.44
460.578	118.44
460.798	132.44
461.018	128.44
461.238	123.44
461.458	112.44
461.678	119.44
461.898	121.44
462.118	136.44
462.338	105.44
462.558	138.44
462.777	123.44
462.997	155.44
463.217	142.44
463.437	130.44
463.657	137.44
463.876	136.44
464.096	138.44
464.316	141.44
464.536	122.44
464.755	132.44
464.975	120.44
465.195	128.44
465.414	134.44
465.634	123.44
465.854	122.44
466.073	108.44
466.293	140.44
466.512	121.44
466.732	116.44
466.951	116.44
467.171	122.44
467.391	100.44
467.61	122.44
467.829	136.44
468.049	110.44
468.268	116.44
468.488	120.44
468.707	118.44
468.927	130.44
469.146	116.44
469.365	129.44
469.585	121.44
469.804	127.44
470.023	125.44
470.243	122.44
470.462	118.44
470.681	125.44
470.901	117.44
471.12	122.44
471.339	100.44
471.558	107.44
471.777	109.44
471.997	132.44
472.216	124.44
472.435	120.44
472.654	114.44
472.873	120.44
473.092	131.44
473.311	112.44
473.53	106.44
473.749	115.44
473.968	121.44
474.187	134.44
474.406	128.44
474.625	132.44
474.844	134.44
475.063	129.44
475.282	125.44
475.501	124.44
475.72	132.44
475.939	118.44
476.158	122.44
476.377	117.44
476.596	124.44
476.814	106.44
477.033	122.44
477.252	114.44
477.471	123.44
477.69	120.44
477.908	122.44
478.127	134.44
478.346	118.44
478.564	140.44
478.783	126.44
479.002	139.44
479.22	136.44
479.439	129.44
479.658	122.44
479.876	125.44
480.095	121.44
480.313	128.44
480.532	138.44
480.751	132.44
480.969	124.44
481.188	125.44
481.406	134.44
481.624	134.44
481.843	121.44
482.061	123.44
482.28	109.44
482.498	128.44
482.717	124.44
482.935	125.44
483.153	120.44
483.372	124.44
483.59	122.44
483.808	132.44
484.027	126.44
484.245	127.44
484.463	136.44
484.681	133.44
484.9	127.44
485.118	106.44
485.336	134.44
485.554	138.44
485.772	129.44
485.99	141.44
486.209	122.44
486.427	125.44
486.645	119.44
486.863	134.44
487.081	130.44
487.299	134.44
487.517	138.44
487.735	120.44
487.953	117.44
488.171	129.44
488.389	143.44
488.607	136.44
488.825	119.44
489.043	138.44
489.261	135.44
489.479	120.44
489.696	124.44
489.914	124.44
490.132	130.44
490.35	136.44
490.568	139.44
490.786	133.44
491.003	141.44
491.221	133.44
491.439	143.44
491.657	123.44
491.874	146.44
492.092	142.44
492.31	137.44
492.527	141.44
492.745	151.44
492.963	131.44
493.18	146.44
493.398	126.44
493.615	134.44
493.833	144.44
494.05	144.44
494.268	138.44
494.485	132.44
494.703	139.44
494.92	139.44
495.138	129.44
495.355	136.44
495.573	141.44
495.79	144.44
496.008	133.44
496.225	138.44
496.442	139.44
496.66	140.44
496.877	148.44
497.094	146.44
497.312	147.44
497.529	127.44
497.746	138.44
497.963	151.44
498.181	129.44
498.398	142.44
498.615	140.44
498.832	149.44
499.049	157.44
499.267	159.44
499.484	166.44
499.701	185.44
499.918	189.44
500.135	186.44
500.352	190.44
500.569	196.44
500.786	199.44
501.003	205.44
501.22	200.44
501.437	181.44
501.654	174.44
501.871	164.44
502.088	168.44
502.305	164.44
502.522	149.44
502.739	157.44
502.956	155.44
503.172	132.44
503.389	148.44
503.606	151.44
503.823	130.44
504.04	148.44
504.256	142.44
504.473	132.44
504.69	143.44
504.907	158.44
505.123	143.44
505.34	134.44
505.557	136.44
505.773	135.44
505.99	124.44
506.207	108.44
506.423	140.44
506.64	129.44
506.856	127.44
507.073	125.44
507.289	128.44
507.506	120.44
507.722	121.44
507.939	136.44
508.155	123.44
508.372	128.44
508.588	139.44
508.805	137.44
509.021	134.44
509.238	122.44
509.454	128.44
509.67	121.44
509.887	145.44
510.103	146.44
510.319	137.44
510.536	142.44
510.752	155.44
510.968	135.44
511.184	125.44
511.401	122.44
511.617	139.44
511.833	122.44
512.049	134.44
512.265	112.44
512.481	126.44
512.698	123.44
512.914	124.44
513.13	102.44
513.346	117.44
513.562	116.44
513.778	104.44
513.994	122.44
514.21	124.44
514.426	124.44
514.642	122.44
514.858	113.44
515.074	126.44
515.29	140.44
515.506	161.44
515.721	150.44
515.937	134.44
516.153	119.44
516.369	128.44
516.585	133.44
516.801	125.44
517.016	146.44
517.232	138.44
517.448	130.44
517.664	142.44
517.879	124.44
518.095	118.44
518.311	142.44
518.527	147.44
518.742	142.44
518.958	125.44
519.173	134.44
519.389	136.44
519.605	132.44
519.82	121.44
520.036	126.44
520.251	128.44
520.467	125.44
520.682	138.44
520.898	125.44
521.113	124.44
521.329	136.44
521.544	128.44
521.76	139.44
521.975	157.44
522.19	169.44
522.406	138.44
522.621	140.44
522.836	123.44
523.052	125.44
523.267	121.44
523.482	120.44
523.698	120.44
523.913	119.44
524.128	125.44
524.343	119.44
524.559	129.44
524.774	102.44
524.989	138.44
525.204	118.44
525.419	108.44
525.634	112.44
525.849	123.44
526.064	103.44
526.28	117.44
526.495	114.44
526.71	115.44
526.925	125.44
527.14	113.44
527.355	112.44
527.57	108.44
527.785	120.44
527.999	126.44
528.214	124.44
528.429	120.44
528.644	101.44
528.859	130.44
529.074	112.44
529.289	138.44
529.503	136.44
529.718	109.44
529.933	108.44
530.148	105.44
530.363	122.44
530.577	116.44
530.792	126.44
531.007	109.44
531.221	121.44
531.436	111.44
531.651	113.44
531.865	102.44
532.08	105.44
532.295	98.44
532.509	113.44
532.724	117.44
532.938	108.44
533.153	117.44
533.367	116.44
533.582	117.44
533.796	123.44
534.011	100.44
534.225	117.44
534.44	103.44
534.654	130.44
534.868	126.44
535.083	118.44
535.297	109.44
535.511	112.44
535.726	117.44
535.94	117.44
536.154	117.44
536.369	123.44
536.583	118.44
536.797	117.44
537.011	102.44
537.225	108.44
537.44	123.44
537.654	118.44
537.868	107.44
538.082	108.44
538.296	123.44
538.51	122.44
538.724	127.44
538.938	110.44
539.153	116.44
539.367	126.44
539.581	120.44
539.795	127.44
540.009	112.44
540.222	133.44
540.436	119.44
540.65	112.44
540.864	119.44
541.078	123.44
541.292	123.44
541.506	122.44
541.72	124.44
541.934	129.44
542.147	132.44
542.361	140.44
542.575	147.44
542.789	136.44
543.002	143.44
543.216	124.44
543.43	132.44
543.644	124.44
543.857	134.44
544.071	129.44
544.285	138.44
544.498	125.44
544.712	140.44
544.925	128.44
545.139	133.44
545.352	124.44
545.566	124.44
545.779	134.44
545.993	131.44
546.206	134.44
546.42	132.44
546.633	132.44
546.847	132.44
547.06	133.44
547.274	128.44
547.487	132.44
547.7	123.44
547.914	128.44
548.127	129.44
548.34	124.44
548.554	129.44
548.767	118.44
548.98	124.44
549.193	145.44
549.407	115.44
549.62	118.44
549.833	117.44
550.046	129.44
550.259	113.44
550.473	128.44
550.686	104.44
550.899	120.44
551.112	115.44
551.325	113.44
551.538	116.44
551.751	122.44
551.964	127.44
552.177	135.44
552.39	128.44
552.603	140.44
552.816	123.44
553.029	120.44
553.242	121.44
553.455	135.44
553.667	124.44
553.88	113.44
554.093	114.44
554.306	121.44
554.519	118.44
554.732	118.44
554.944	136.44
555.157	122.44
555.37	133.44
555.583	113.44
555.795	124.44
556.008	125.44
556.221	128.44
556.433	107.44
556.646	125.44
556.859	119.44
557.071	108.44
557.284	119.44
557.496	105.44
557.709	109.44
557.921	125.44
558.134	119.44
558.346	112.44
558.559	117.44
558.771	101.44
558.984	124.44
559.196	106.44
559.409	128.44
559.621	104.44
559.833	123.44
560.046	108.44
560.258	106.44
560.47	122.44
560.683	112.44
560.895	108.44
561.107	110.44
561.32	121.44
561.532	112.44
561.744	113.44
561.956	113.44
562.168	112.44
562.381	113.44
562.593	116.44
562.805	127.44
563.017	129.44
563.229	116.44
563.441	124.44
563.653	127.44
563.865	115.44
564.077	116.44
564.289	112.44
564.501	125.44
564.713	128.44
564.925	124.44
565.137	125.44
565.349	122.44
565.561	123.44
565.773	102.44
565.985	124.44
566.197	128.44
566.408	131.44
566.62	139.44
566.832	130.44
567.044	138.44
567.255	119.44
567.467	141.44
567.679	119.44
567.891	125.44
568.102	133.44
568.314	136.44
568.526	132.44
568.737	117.44
568.949	120.44
569.161	114.44
569.372	114.44
569.584	112.44
569.795	130.44
570.007	131.44
570.218	133.44
570.43	114.44
570.641	125.44
570.853	116.44
571.064	117.44
571.276	109.44
571.487	118.44
571.698	105.44
571.91	120.44
572.121	107.44
572.333	98.44
572.544	98.44
572.755	113.44
572.966	103.44
573.178	130.44
573.389	104.44
573.6	108.44
573.811	94.44
574.023	100.44
574.234	110.44
574.445	114.44
574.656	114.44
574.867	88.44
575.078	105.44
575.289	121.44
575.501	109.44
575.712	88.44
575.923	104.44
576.134	96.44
576.345	101.44
576.556	104.44
576.767	98.44
576.978	91.44
577.188	116.44
577.399	109.44
577.61	109.44
577.821	110.44
578.032	117.44
578.243	111.44
578.454	123.44
578.665	104.44
578.875	92.44
579.086	98.44
579.297	100.44
579.508	91.44
579.718	89.44
579.929	109.44
580.14	117.44
580.35	94.44
580.561	93.44
580.772	92.44
580.982	94.44
581.193	99.44
581.403	97.44
581.614	101.44
581.825	97.44
582.035	106.44
582.246	105.44
582.456	98.44
582.667	120.44
582.877	106.44
583.087	97.44
583.298	95.44
583.508	102.44
583.719	97.44
583.929	102.44
584.139	102.44
584.35	100.44
584.56	97.44
584.77	98.44
584.981	106.44
585.191	115.44
585.401	100.44
585.611	88.44
585.821	102.44
586.032	110.44
586.242	105.44
586.452	103.44
586.662	98.44
586.872	91.44
587.082	101.44
587.292	118.44
587.502	109.44
587.713	115.44
587.923	114.44
588.133	116.44
588.343	100.44
588.553	105.44
588.762	109.44
588.972	102.44
589.182	96.44
589.392	102.44
589.602	89.44
589.812	101.44
590.022	100.44
590.232	113.44
590.441	107.44
590.651	86.44
590.861	93.44
591.071	103.44
591.281	119.44
591.49	99.44
591.7	104.44
591.91	101.44
592.119	104.44
592.329	114.44
592.539	114.44
592.748	121.44
592.958	120.44
593.167	114.44
593.377	114.44
593.587	114.44
593.796	104.44
594.006	105.44
594.215	105.44
594.424	107.44
594.634	120.44
594.843	107.44
595.053	103.44
595.262	110.44
595.472	115.44
595.681	124.44
595.89	120.44
596.1	109.44
596.309	107.44
596.518	109.44
596.727	110.44
596.937	96.44
597.146	114.44
597.355	94.44
597.564	91.44
597.774	99.44
597.983	103.44
598.192	110.44
598.401	105.44
598.61	102.44
598.819	112.44
599.028	98.44
599.237	107.44
599.446	88.44
599.655	96.44
599.864	99.44
600.073	107.44
600.282	103.44
600.491	99.44
600.7	91.44
600.909	97.44
601.118	98.44
601.327	101.44
601.536	101.44
601.745	105.44
601.953	100.44
602.162	94.44
602.371	107.44
602.58	111.44
602.789	104.44
602.997	110.44
603.206	112.44
603.415	109.44
603.623	105.44
603.832	92.44
604.041	96.44
604.249	91.44
604.458	101.44
604.666	96.44
604.875	107.44
605.084	105.44
605.292	91.44
605.501	93.44
605.709	102.44
605.918	113.44
606.126	113.44
606.334	92.44
606.543	93.44
606.751	101.44
606.96	92.44
607.168	97.44
607.376	96.44
607.585	110.44
607.793	99.44
608.001	91.44
608.21	105.44
608.418	91.44
608.626	106.44
608.834	94.44
609.043	110.44
609.251	92.44
609.459	88.44
609.667	108.44
609.875	85.44
610.083	110.44
610.291	102.44
610.499	116.44
610.707	111.44
610.916	97.44
611.124	123.44
611.332	100.44
611.54	121.44
611.748	109.44
611.955	110.44
612.163	102.44
612.371	105.44
612.579	104.44
612.787	104.44
612.995	105.44
613.203	115.44
613.411	101.44
613.618	114.44
613.826	112.44
614.034	96.44
614.242	102.44
614.449	117.44
614.657	100.44
614.865	109.44
615.072	101.44
615.28	82.44
615.488	99.44
615.695	97.44
615.903	108.44
616.111	99.44
616.318	105.44
616.526	104.44
616.733	115.44
616.941	100.44
617.148	104.44
617.356	99.44
617.563	98.44
617.771	110.44
617.978	96.44
618.185	91.44
618.393	96.44
618.6	89.44
618.807	85.44
619.015	113.44
619.222	97.44
619.429	86.44
619.637	103.44
619.844	121.44
620.051	106.44
620.258	101.44
620.466	91.44
620.673	93.44
620.88	100.44
621.087	99.44
621.294	101.44
621.501	95.44
621.708	87.44
621.915	107.44
622.122	94.44
622.329	103.44
622.536	86.44
622.743	100.44
622.95	96.44
623.157	107.44
623.364	86.44
623.571	92.44
623.778	102.44
623.985	92.44
624.192	105.44
624.399	98.44
624.606	119.44
624.812	98.44
625.019	107.44
625.226	89.44
625.433	100.44
625.639	82.44
625.846	102.44
626.053	101.44
626.259	91.44
626.466	92.44
626.673	91.44
626.879	89.44
627.086	91.44
627.293	86.44
627.499	92.44
627.706	94.44
627.912	88.44
628.119	104.44
628.325	89.44
628.532	100.44
628.738	87.44
628.945	96.44
629.151	93.44
629.357	92.44
629.564	84.44
629.77	92.44
629.976	90.44
630.183	84.44
630.389	93.44
630.595	74.44
630.802	85.44
631.008	90.44
631.214	72.44
631.42	117.44
631.627	114.44
631.833	92.44
632.039	104.44
632.245	97.44
632.451	99.44
632.657	93.44
632.863	84.44
633.069	99.44
633.275	100.44
633.481	89.44
633.688	94.44
633.893	115.44
634.099	105.44
634.305	101.44
634.511	108.44
634.717	101.44
634.923	97.44
635.129	100.44
635.335	96.44
635.541	80.44
635.747	99.44
635.952	85.44
636.158	99.44
636.364	84.44
636.57	91.44
636.775	94.44
636.981	87.44
637.187	92.44
637.392	94.44
637.598	82.44
637.804	85.44
638.009	78.44
638.215	88.44
638.421	84.44
638.626	97.44
638.832	91.44
639.037	88.44
639.243	108.44
639.448	77.44
639.654	95.44
639.859	75.44
640.065	97.44
640.27	106.44
640.475	103.44
640.681	94.44
640.886	92.44
641.091	85.44
641.297	97.44
641.502	96.44
641.707	94.44
641.913	82.44
642.118	93.44
642.323	97.44
642.528	107.44
642.733	93.44
642.939	94.44
643.144	85.44
643.349	87.44
643.554	99.44
643.759	88.44
643.964	85.44
644.169	75.44
644.374	91.44
644.579	91.44
644.784	95.44
644.989	102.44
645.194	92.44
645.399	92.44
645.604	90.44
645.809	75.44
646.014	99.44
646.219	88.44
646.423	84.44
646.628	93.44
646.833	83.44
647.038	84.44
647.243	103.44
647.447	98.44
647.652	99.44
647.857	99.44
648.062	92.44
648.266	93.44
648.471	102.44
648.676	94.44
648.88	80.44
649.085	89.44
649.289	101.44
649.494	89.44
649.698	103.44
649.903	108.44
650.107	83.44
650.312	78.44
650.516	86.44
650.721	74.44
650.925	97.44
651.13	108.44
651.334	92.44
651.539	98.44
651.743	78.44
651.947	83.44
652.152	84.44
652.356	90.44
652.56	104.44
652.764	83.44
652.969	90.44
653.173	87.44
653.377	91.44
653.581	84.44
653.785	76.44
653.99	92.44
654.194	76.44
654.398	90.44
654.602	83.44
654.806	89.44
655.01	100.44
655.214	88.44
655.418	95.44
655.622	89.44
655.826	91.44
656.03	77.44
656.234	90.44
656.438	88.44
656.642	94.44
656.846	102.44
657.049	88.44
657.253	78.44
657.457	82.44
657.661	88.44
657.865	73.44
658.068	77.44
658.272	79.44
658.476	88.44
658.68	89.44
658.883	102.44
659.087	68.44
659.291	86.44
659.494	84.44
659.698	85.44
659.901	78.44
660.105	76.44
660.309	85.44
660.512	96.44
660.716	87.44
660.919	95.44
661.123	85.44
661.326	81.44
661.53	95.44
661.733	76.44
661.936	87.44
662.14	88.44
662.343	83.44
662.546	81.44
662.75	84.44
662.953	90.44
663.156	92.44
663.36	80.44
663.563	86.44
663.766	83.44
663.969	79.44
664.173	83.44
664.376	75.44
664.579	72.44
664.782	89.44
664.985	83.44
665.188	78.44
665.391	81.44
665.594	81.44
665.797	84.44
666	74.44
666.203	73.44
666.406	71.44
666.609	83.44
666.812	88.44
667.015	91.44
667.218	85.44
667.421	94.44
667.624	76.44
667.827	76.44
668.03	80.44
668.232	74.44
668.435	81.44
668.638	75.44
668.841	68.44
669.043	82.44
669.246	85.44
669.449	94.44
669.651	87.44
669.854	89.44
670.057	74.44
670.259	90.44
670.462	83.44
670.665	73.44
670.867	81.44
671.07	79.44
671.272	88.44
671.475	86.44
671.677	94.44
671.88	78.44
672.082	80.44
672.284	91.44
672.487	85.44
672.689	65.44
672.892	101.44
