Data from 1968.PennyLincolnUp.Lamp.En5.5.200Scan.071719.P1._HRD10591_14-50-00-969.txt Node
Date: Thu Jul 18 14:50:00 EDT 2019
User: cochatt
Spectrometer: HR+D1059
Trigger mode: 1
Integration Time (sec): 1.000000E-1
Scans to average: 1
Electric dark correction enabled: true
Nonlinearity correction enabled: false
Boxcar width: 0
XAxis mode: Wavelengths
Number of Pixels in Spectrum: 2048
>>>>>Begin Spectral Data<<<<<
223.165	-10.44
223.4	-10.44
223.635	-10.44
223.869	-27.44
224.104	-3.44
224.338	-12.44
224.573	-10.44
224.808	-1.44
225.042	-11.44
225.277	-11.44
225.511	-6.44
225.746	10.56
225.98	-13.44
226.215	-2.44
226.449	22.56
226.683	18.56
226.918	25.56
227.152	33.56
227.387	21.56
227.621	28.56
227.856	39.56
228.09	54.56
228.324	54.56
228.559	44.56
228.793	72.56
229.027	66.56
229.262	59.56
229.496	58.56
229.73	71.56
229.964	75.56
230.199	92.56
230.433	81.56
230.667	82.56
230.901	70.56
231.136	81.56
231.37	80.56
231.604	67.56
231.838	78.56
232.072	73.56
232.306	74.56
232.541	73.56
232.775	79.56
233.009	87.56
233.243	94.56
233.477	89.56
233.711	92.56
233.945	69.56
234.179	87.56
234.413	88.56
234.647	93.56
234.881	90.56
235.115	91.56
235.349	76.56
235.583	69.56
235.817	81.56
236.051	86.56
236.285	82.56
236.519	80.56
236.753	89.56
236.987	74.56
237.221	81.56
237.455	76.56
237.689	67.56
237.922	80.56
238.156	95.56
238.39	81.56
238.624	83.56
238.858	71.56
239.091	80.56
239.325	87.56
239.559	69.56
239.793	72.56
240.027	76.56
240.26	74.56
240.494	88.56
240.728	80.56
240.961	97.56
241.195	85.56
241.429	75.56
241.662	56.56
241.896	94.56
242.13	72.56
242.363	79.56
242.597	80.56
242.83	69.56
243.064	84.56
243.298	109.56
243.531	80.56
243.765	71.56
243.998	76.56
244.232	89.56
244.465	69.56
244.699	73.56
244.932	84.56
245.166	68.56
245.399	88.56
245.633	89.56
245.866	85.56
246.099	74.56
246.333	87.56
246.566	81.56
246.8	86.56
247.033	87.56
247.266	88.56
247.5	94.56
247.733	87.56
247.966	97.56
248.2	97.56
248.433	75.56
248.666	90.56
248.899	81.56
249.133	79.56
249.366	94.56
249.599	87.56
249.832	85.56
250.066	100.56
250.299	95.56
250.532	82.56
250.765	74.56
250.998	80.56
251.231	83.56
251.465	96.56
251.698	82.56
251.931	84.56
252.164	92.56
252.397	82.56
252.63	96.56
252.863	83.56
253.096	99.56
253.329	96.56
253.562	85.56
253.795	83.56
254.028	83.56
254.261	93.56
254.494	104.56
254.727	94.56
254.96	81.56
255.193	84.56
255.426	96.56
255.659	85.56
255.892	85.56
256.124	95.56
256.357	73.56
256.59	84.56
256.823	79.56
257.056	88.56
257.289	92.56
257.521	101.56
257.754	74.56
257.987	94.56
258.22	90.56
258.452	79.56
258.685	92.56
258.918	92.56
259.151	91.56
259.383	99.56
259.616	86.56
259.849	82.56
260.081	101.56
260.314	78.56
260.547	80.56
260.779	94.56
261.012	89.56
261.244	88.56
261.477	94.56
261.71	101.56
261.942	82.56
262.175	108.56
262.407	91.56
262.64	99.56
262.872	99.56
263.105	94.56
263.337	89.56
263.57	86.56
263.802	91.56
264.035	95.56
264.267	85.56
264.499	96.56
264.732	89.56
264.964	89.56
265.197	90.56
265.429	98.56
265.661	67.56
265.894	90.56
266.126	86.56
266.358	104.56
266.591	104.56
266.823	88.56
267.055	88.56
267.287	90.56
267.52	98.56
267.752	87.56
267.984	98.56
268.216	96.56
268.448	90.56
268.681	84.56
268.913	79.56
269.145	103.56
269.377	103.56
269.609	81.56
269.841	105.56
270.073	74.56
270.306	81.56
270.538	105.56
270.77	97.56
271.002	85.56
271.234	91.56
271.466	80.56
271.698	102.56
271.93	85.56
272.162	99.56
272.394	87.56
272.626	92.56
272.858	100.56
273.09	97.56
273.322	94.56
273.553	94.56
273.785	100.56
274.017	104.56
274.249	98.56
274.481	109.56
274.713	100.56
274.945	93.56
275.176	100.56
275.408	101.56
275.64	89.56
275.872	104.56
276.104	114.56
276.335	96.56
276.567	107.56
276.799	105.56
277.031	94.56
277.262	114.56
277.494	101.56
277.726	103.56
277.957	93.56
278.189	104.56
278.421	110.56
278.652	92.56
278.884	94.56
279.115	107.56
279.347	88.56
279.579	90.56
279.81	101.56
280.042	92.56
280.273	102.56
280.505	104.56
280.736	99.56
280.968	93.56
281.199	89.56
281.431	109.56
281.662	103.56
281.894	104.56
282.125	103.56
282.356	110.56
282.588	99.56
282.819	96.56
283.051	92.56
283.282	107.56
283.513	89.56
283.745	97.56
283.976	91.56
284.207	93.56
284.439	99.56
284.67	101.56
284.901	102.56
285.132	105.56
285.364	99.56
285.595	81.56
285.826	96.56
286.057	79.56
286.288	102.56
286.52	109.56
286.751	104.56
286.982	113.56
287.213	98.56
287.444	90.56
287.675	117.56
287.906	115.56
288.138	101.56
288.369	98.56
288.6	96.56
288.831	100.56
289.062	98.56
289.293	111.56
289.524	94.56
289.755	110.56
289.986	92.56
290.217	97.56
290.448	112.56
290.679	109.56
290.91	88.56
291.141	97.56
291.371	93.56
291.602	96.56
291.833	98.56
292.064	116.56
292.295	99.56
292.526	100.56
292.757	108.56
292.987	91.56
293.218	99.56
293.449	99.56
293.68	108.56
293.91	92.56
294.141	99.56
294.372	103.56
294.603	102.56
294.833	105.56
295.064	94.56
295.295	102.56
295.525	93.56
295.756	98.56
295.987	91.56
296.217	98.56
296.448	92.56
296.679	121.56
296.909	102.56
297.14	103.56
297.37	110.56
297.601	92.56
297.831	97.56
298.062	107.56
298.292	97.56
298.523	112.56
298.753	91.56
298.984	96.56
299.214	104.56
299.445	96.56
299.675	100.56
299.905	101.56
300.136	114.56
300.366	103.56
300.597	101.56
300.827	108.56
301.057	104.56
301.288	117.56
301.518	109.56
301.748	92.56
301.979	98.56
302.209	96.56
302.439	100.56
302.669	118.56
302.9	106.56
303.13	125.56
303.36	106.56
303.59	108.56
303.82	117.56
304.051	97.56
304.281	102.56
304.511	107.56
304.741	96.56
304.971	87.56
305.201	92.56
305.431	117.56
305.661	88.56
305.891	130.56
306.121	119.56
306.352	99.56
306.582	108.56
306.812	83.56
307.042	104.56
307.272	108.56
307.502	105.56
307.731	98.56
307.961	103.56
308.191	91.56
308.421	94.56
308.651	100.56
308.881	102.56
309.111	109.56
309.341	101.56
309.571	114.56
309.8	107.56
310.03	109.56
310.26	104.56
310.49	102.56
310.72	105.56
310.949	112.56
311.179	109.56
311.409	108.56
311.639	99.56
311.868	113.56
312.098	107.56
312.328	107.56
312.557	101.56
312.787	97.56
313.017	121.56
313.246	104.56
313.476	84.56
313.706	104.56
313.935	100.56
314.165	114.56
314.394	131.56
314.624	109.56
314.853	111.56
315.083	117.56
315.312	105.56
315.542	91.56
315.771	108.56
316.001	114.56
316.23	104.56
316.46	117.56
316.689	109.56
316.919	114.56
317.148	104.56
317.377	99.56
317.607	119.56
317.836	99.56
318.065	117.56
318.295	121.56
318.524	100.56
318.753	116.56
318.983	115.56
319.212	103.56
319.441	104.56
319.67	104.56
319.9	91.56
320.129	94.56
320.358	92.56
320.587	107.56
320.816	101.56
321.046	109.56
321.275	109.56
321.504	108.56
321.733	111.56
321.962	112.56
322.191	106.56
322.42	98.56
322.649	105.56
322.878	109.56
323.108	118.56
323.337	101.56
323.566	123.56
323.795	115.56
324.024	117.56
324.253	120.56
324.482	136.56
324.71	139.56
324.939	178.56
325.168	139.56
325.397	125.56
325.626	107.56
325.855	110.56
326.084	122.56
326.313	124.56
326.542	105.56
326.77	128.56
326.999	135.56
327.228	129.56
327.457	149.56
327.686	146.56
327.914	135.56
328.143	116.56
328.372	113.56
328.6	121.56
328.829	108.56
329.058	108.56
329.287	101.56
329.515	118.56
329.744	104.56
329.972	100.56
330.201	117.56
330.43	118.56
330.658	108.56
330.887	119.56
331.115	108.56
331.344	106.56
331.572	133.56
331.801	117.56
332.03	113.56
332.258	103.56
332.486	106.56
332.715	119.56
332.943	118.56
333.172	106.56
333.4	116.56
333.629	117.56
333.857	116.56
334.085	118.56
334.314	120.56
334.542	126.56
334.771	119.56
334.999	107.56
335.227	123.56
335.455	111.56
335.684	122.56
335.912	119.56
336.14	116.56
336.369	114.56
336.597	129.56
336.825	109.56
337.053	100.56
337.281	118.56
337.51	95.56
337.738	120.56
337.966	118.56
338.194	112.56
338.422	107.56
338.65	116.56
338.878	108.56
339.106	112.56
339.334	107.56
339.562	103.56
339.79	119.56
340.018	122.56
340.246	111.56
340.474	117.56
340.702	100.56
340.93	109.56
341.158	100.56
341.386	112.56
341.614	111.56
341.842	104.56
342.07	97.56
342.298	97.56
342.526	115.56
342.754	112.56
342.981	118.56
343.209	126.56
343.437	116.56
343.665	115.56
343.893	125.56
344.12	121.56
344.348	107.56
344.576	122.56
344.804	112.56
345.031	117.56
345.259	110.56
345.487	119.56
345.714	109.56
345.942	104.56
346.17	103.56
346.397	116.56
346.625	107.56
346.853	113.56
347.08	113.56
347.308	118.56
347.535	113.56
347.763	109.56
347.99	103.56
348.218	130.56
348.445	128.56
348.673	119.56
348.9	90.56
349.128	111.56
349.355	114.56
349.583	106.56
349.81	105.56
350.037	101.56
350.265	103.56
350.492	119.56
350.72	109.56
350.947	108.56
351.174	112.56
351.402	122.56
351.629	113.56
351.856	92.56
352.083	108.56
352.311	122.56
352.538	114.56
352.765	113.56
352.992	104.56
353.22	104.56
353.447	110.56
353.674	106.56
353.901	119.56
354.128	104.56
354.355	107.56
354.583	103.56
354.81	101.56
355.037	120.56
355.264	114.56
355.491	108.56
355.718	105.56
355.945	110.56
356.172	105.56
356.399	119.56
356.626	119.56
356.853	129.56
357.08	113.56
357.307	103.56
357.534	110.56
357.761	110.56
357.988	120.56
358.215	94.56
358.441	105.56
358.668	99.56
358.895	116.56
359.122	117.56
359.349	100.56
359.576	106.56
359.802	111.56
360.029	105.56
360.256	118.56
360.483	108.56
360.709	107.56
360.936	109.56
361.163	97.56
361.39	111.56
361.616	116.56
361.843	105.56
362.07	118.56
362.296	113.56
362.523	122.56
362.749	110.56
362.976	101.56
363.203	115.56
363.429	109.56
363.656	110.56
363.882	114.56
364.109	116.56
364.335	108.56
364.562	114.56
364.788	102.56
365.015	108.56
365.241	105.56
365.468	111.56
365.694	105.56
365.92	104.56
366.147	104.56
366.373	107.56
366.599	113.56
366.826	114.56
367.052	112.56
367.278	97.56
367.505	116.56
367.731	103.56
367.957	100.56
368.184	97.56
368.41	109.56
368.636	113.56
368.862	120.56
369.089	117.56
369.315	111.56
369.541	113.56
369.767	113.56
369.993	126.56
370.219	109.56
370.445	116.56
370.672	112.56
370.898	102.56
371.124	93.56
371.35	108.56
371.576	116.56
371.802	117.56
372.028	116.56
372.254	103.56
372.48	111.56
372.706	115.56
372.932	117.56
373.158	103.56
373.384	125.56
373.61	117.56
373.835	119.56
374.061	110.56
374.287	103.56
374.513	97.56
374.739	106.56
374.965	126.56
375.191	101.56
375.416	106.56
375.642	116.56
375.868	108.56
376.094	113.56
376.319	116.56
376.545	117.56
376.771	121.56
376.997	109.56
377.222	109.56
377.448	122.56
377.674	112.56
377.899	103.56
378.125	117.56
378.35	104.56
378.576	116.56
378.802	103.56
379.027	106.56
379.253	121.56
379.478	117.56
379.704	112.56
379.929	113.56
380.155	105.56
380.38	105.56
380.606	118.56
380.831	106.56
381.057	112.56
381.282	99.56
381.507	117.56
381.733	118.56
381.958	108.56
382.184	100.56
382.409	116.56
382.634	112.56
382.86	121.56
383.085	107.56
383.31	109.56
383.535	134.56
383.761	112.56
383.986	104.56
384.211	133.56
384.436	103.56
384.662	126.56
384.887	115.56
385.112	116.56
385.337	113.56
385.562	125.56
385.787	105.56
386.013	135.56
386.238	116.56
386.463	122.56
386.688	116.56
386.913	105.56
387.138	115.56
387.363	130.56
387.588	129.56
387.813	104.56
388.038	122.56
388.263	108.56
388.488	124.56
388.713	106.56
388.938	121.56
389.163	116.56
389.387	132.56
389.612	94.56
389.837	123.56
390.062	111.56
390.287	116.56
390.512	118.56
390.736	121.56
390.961	125.56
391.186	124.56
391.411	114.56
391.636	112.56
391.86	125.56
392.085	115.56
392.31	131.56
392.534	122.56
392.759	124.56
392.984	125.56
393.208	126.56
393.433	123.56
393.658	125.56
393.882	125.56
394.107	124.56
394.331	105.56
394.556	130.56
394.78	116.56
395.005	108.56
395.229	128.56
395.454	111.56
395.678	124.56
395.903	122.56
396.127	119.56
396.352	121.56
396.576	117.56
396.801	114.56
397.025	117.56
397.249	121.56
397.474	128.56
397.698	134.56
397.922	122.56
398.147	119.56
398.371	116.56
398.595	124.56
398.82	118.56
399.044	133.56
399.268	130.56
399.492	152.56
399.717	146.56
399.941	148.56
400.165	151.56
400.389	127.56
400.613	128.56
400.837	125.56
401.062	130.56
401.286	128.56
401.51	140.56
401.734	132.56
401.958	111.56
402.182	114.56
402.406	141.56
402.63	123.56
402.854	125.56
403.078	123.56
403.302	130.56
403.526	126.56
403.75	139.56
403.974	146.56
404.198	132.56
404.422	129.56
404.645	147.56
404.869	124.56
405.093	136.56
405.317	134.56
405.541	135.56
405.765	117.56
405.988	126.56
406.212	150.56
406.436	135.56
406.66	129.56
406.883	148.56
407.107	132.56
407.331	135.56
407.555	148.56
407.778	155.56
408.002	135.56
408.226	143.56
408.449	122.56
408.673	128.56
408.896	145.56
409.12	136.56
409.344	130.56
409.567	128.56
409.791	110.56
410.014	125.56
410.238	136.56
410.461	132.56
410.685	133.56
410.908	146.56
411.132	126.56
411.355	140.56
411.578	135.56
411.802	129.56
412.025	141.56
412.249	113.56
412.472	122.56
412.695	133.56
412.919	138.56
413.142	136.56
413.365	123.56
413.589	130.56
413.812	148.56
414.035	127.56
414.258	123.56
414.482	126.56
414.705	127.56
414.928	124.56
415.151	115.56
415.374	123.56
415.597	125.56
415.821	129.56
416.044	119.56
416.267	136.56
416.49	123.56
416.713	125.56
416.936	147.56
417.159	123.56
417.382	121.56
417.605	128.56
417.828	137.56
418.051	129.56
418.274	141.56
418.497	131.56
418.72	116.56
418.943	137.56
419.166	128.56
419.389	131.56
419.611	130.56
419.834	130.56
420.057	134.56
420.28	152.56
420.503	130.56
420.726	136.56
420.948	131.56
421.171	128.56
421.394	118.56
421.617	112.56
421.839	122.56
422.062	132.56
422.285	118.56
422.507	126.56
422.73	137.56
422.953	134.56
423.175	139.56
423.398	138.56
423.621	149.56
423.843	121.56
424.066	148.56
424.288	117.56
424.511	151.56
424.733	148.56
424.956	131.56
425.178	132.56
425.401	140.56
425.623	133.56
425.846	128.56
426.068	124.56
426.291	121.56
426.513	120.56
426.735	124.56
426.958	120.56
427.18	124.56
427.402	133.56
427.625	148.56
427.847	128.56
428.069	129.56
428.292	133.56
428.514	125.56
428.736	117.56
428.958	124.56
429.181	126.56
429.403	115.56
429.625	129.56
429.847	143.56
430.069	110.56
430.292	135.56
430.514	129.56
430.736	125.56
430.958	127.56
431.18	105.56
431.402	110.56
431.624	124.56
431.846	122.56
432.068	122.56
432.29	121.56
432.512	124.56
432.734	122.56
432.956	131.56
433.178	122.56
433.4	120.56
433.622	145.56
433.844	128.56
434.066	109.56
434.287	126.56
434.509	119.56
434.731	129.56
434.953	119.56
435.175	133.56
435.397	138.56
435.618	120.56
435.84	126.56
436.062	142.56
436.284	131.56
436.505	121.56
436.727	135.56
436.949	129.56
437.17	125.56
437.392	122.56
437.614	126.56
437.835	118.56
438.057	128.56
438.278	136.56
438.5	128.56
438.721	129.56
438.943	130.56
439.165	126.56
439.386	117.56
439.608	160.56
439.829	136.56
440.05	125.56
440.272	143.56
440.493	141.56
440.715	125.56
440.936	121.56
441.158	125.56
441.379	128.56
441.6	136.56
441.822	154.56
442.043	126.56
442.264	132.56
442.486	157.56
442.707	124.56
442.928	136.56
443.149	128.56
443.371	122.56
443.592	125.56
443.813	142.56
444.034	138.56
444.255	150.56
444.476	129.56
444.698	133.56
444.919	125.56
445.14	287.56
445.361	187.56
445.582	139.56
445.803	128.56
446.024	128.56
446.245	151.56
446.466	148.56
446.687	138.56
446.908	132.56
447.129	136.56
447.35	122.56
447.571	138.56
447.792	122.56
448.013	113.56
448.234	111.56
448.455	132.56
448.675	125.56
448.896	145.56
449.117	129.56
449.338	128.56
449.559	130.56
449.779	135.56
450	125.56
450.221	122.56
450.442	116.56
450.662	126.56
450.883	122.56
451.104	141.56
451.324	129.56
451.545	121.56
451.766	119.56
451.986	115.56
452.207	124.56
452.428	121.56
452.648	124.56
452.869	116.56
453.089	120.56
453.31	115.56
453.53	106.56
453.751	136.56
453.971	119.56
454.192	109.56
454.412	124.56
454.633	118.56
454.853	116.56
455.073	125.56
455.294	121.56
455.514	116.56
455.734	120.56
455.955	130.56
456.175	109.56
456.395	121.56
456.616	123.56
456.836	128.56
457.056	120.56
457.276	104.56
457.497	116.56
457.717	117.56
457.937	124.56
458.157	113.56
458.377	114.56
458.598	123.56
458.818	109.56
459.038	121.56
459.258	138.56
459.478	119.56
459.698	130.56
459.918	121.56
460.138	121.56
460.358	120.56
460.578	140.56
460.798	118.56
461.018	134.56
461.238	134.56
461.458	115.56
461.678	121.56
461.898	135.56
462.118	134.56
462.338	135.56
462.558	120.56
462.777	138.56
462.997	146.56
463.217	134.56
463.437	132.56
463.657	126.56
463.876	138.56
464.096	136.56
464.316	126.56
464.536	138.56
464.755	142.56
464.975	127.56
465.195	132.56
465.414	137.56
465.634	130.56
465.854	129.56
466.073	136.56
466.293	121.56
466.512	115.56
466.732	121.56
466.951	114.56
467.171	107.56
467.391	119.56
467.61	125.56
467.829	120.56
468.049	121.56
468.268	119.56
468.488	116.56
468.707	118.56
468.927	134.56
469.146	121.56
469.365	106.56
469.585	124.56
469.804	128.56
470.023	129.56
470.243	128.56
470.462	122.56
470.681	128.56
470.901	140.56
471.12	125.56
471.339	122.56
471.558	120.56
471.777	120.56
471.997	105.56
472.216	132.56
472.435	122.56
472.654	125.56
472.873	117.56
473.092	127.56
473.311	128.56
473.53	121.56
473.749	124.56
473.968	127.56
474.187	131.56
474.406	137.56
474.625	134.56
474.844	109.56
475.063	114.56
475.282	106.56
475.501	115.56
475.72	123.56
475.939	108.56
476.158	122.56
476.377	112.56
476.596	115.56
476.814	127.56
477.033	118.56
477.252	122.56
477.471	119.56
477.69	141.56
477.908	141.56
478.127	124.56
478.346	126.56
478.564	134.56
478.783	137.56
479.002	121.56
479.22	124.56
479.439	128.56
479.658	135.56
479.876	132.56
480.095	122.56
480.313	143.56
480.532	137.56
480.751	132.56
480.969	127.56
481.188	137.56
481.406	143.56
481.624	119.56
481.843	118.56
482.061	114.56
482.28	129.56
482.498	139.56
482.717	135.56
482.935	121.56
483.153	128.56
483.372	127.56
483.59	122.56
483.808	148.56
484.027	133.56
484.245	130.56
484.463	129.56
484.681	125.56
484.9	117.56
485.118	134.56
485.336	119.56
485.554	143.56
485.772	123.56
485.99	133.56
486.209	140.56
486.427	139.56
486.645	145.56
486.863	128.56
487.081	129.56
487.299	123.56
487.517	124.56
487.735	125.56
487.953	138.56
488.171	150.56
488.389	125.56
488.607	124.56
488.825	133.56
489.043	128.56
489.261	124.56
489.479	136.56
489.696	138.56
489.914	133.56
490.132	128.56
490.35	136.56
490.568	139.56
490.786	124.56
491.003	134.56
491.221	140.56
491.439	138.56
491.657	137.56
491.874	138.56
492.092	150.56
492.31	152.56
492.527	152.56
492.745	148.56
492.963	151.56
493.18	117.56
493.398	138.56
493.615	146.56
493.833	136.56
494.05	134.56
494.268	135.56
494.485	149.56
494.703	146.56
494.92	140.56
495.138	132.56
495.355	132.56
495.573	150.56
495.79	141.56
496.008	146.56
496.225	146.56
496.442	156.56
496.66	167.56
496.877	136.56
497.094	140.56
497.312	141.56
497.529	148.56
497.746	152.56
497.963	153.56
498.181	137.56
498.398	161.56
498.615	158.56
498.832	162.56
499.049	155.56
499.267	166.56
499.484	164.56
499.701	175.56
499.918	176.56
500.135	200.56
500.352	206.56
500.569	218.56
500.786	209.56
501.003	210.56
501.22	195.56
501.437	187.56
501.654	176.56
501.871	178.56
502.088	167.56
502.305	168.56
502.522	154.56
502.739	152.56
502.956	162.56
503.172	152.56
503.389	153.56
503.606	157.56
503.823	157.56
504.04	156.56
504.256	151.56
504.473	133.56
504.69	149.56
504.907	132.56
505.123	154.56
505.34	149.56
505.557	140.56
505.773	135.56
505.99	130.56
506.207	149.56
506.423	147.56
506.64	140.56
506.856	132.56
507.073	136.56
507.289	123.56
507.506	135.56
507.722	125.56
507.939	122.56
508.155	124.56
508.372	128.56
508.588	128.56
508.805	134.56
509.021	131.56
509.238	131.56
509.454	123.56
509.67	123.56
509.887	131.56
510.103	116.56
510.319	122.56
510.536	143.56
510.752	170.56
510.968	157.56
511.184	126.56
511.401	120.56
511.617	120.56
511.833	121.56
512.049	124.56
512.265	122.56
512.481	139.56
512.698	132.56
512.914	125.56
513.13	133.56
513.346	129.56
513.562	138.56
513.778	116.56
513.994	128.56
514.21	131.56
514.426	136.56
514.642	119.56
514.858	120.56
515.074	129.56
515.29	137.56
515.506	155.56
515.721	141.56
515.937	132.56
516.153	135.56
516.369	128.56
516.585	146.56
516.801	118.56
517.016	136.56
517.232	134.56
517.448	141.56
517.664	146.56
517.879	134.56
518.095	128.56
518.311	137.56
518.527	129.56
518.742	130.56
518.958	138.56
519.173	136.56
519.389	131.56
519.605	130.56
519.82	133.56
520.036	139.56
520.251	126.56
520.467	116.56
520.682	132.56
520.898	120.56
521.113	131.56
521.329	131.56
521.544	119.56
521.76	128.56
521.975	173.56
522.19	199.56
522.406	144.56
522.621	126.56
522.836	129.56
523.052	123.56
523.267	129.56
523.482	124.56
523.698	122.56
523.913	134.56
524.128	121.56
524.343	116.56
524.559	125.56
524.774	128.56
524.989	140.56
525.204	128.56
525.419	115.56
525.634	117.56
525.849	110.56
526.064	100.56
526.28	118.56
526.495	131.56
526.71	107.56
526.925	104.56
527.14	119.56
527.355	108.56
527.57	104.56
527.785	120.56
527.999	116.56
528.214	122.56
528.429	118.56
528.644	121.56
528.859	130.56
529.074	124.56
529.289	128.56
529.503	131.56
529.718	134.56
529.933	120.56
530.148	128.56
530.363	106.56
530.577	135.56
530.792	126.56
531.007	124.56
531.221	119.56
531.436	120.56
531.651	119.56
531.865	122.56
532.08	119.56
532.295	121.56
532.509	130.56
532.724	116.56
532.938	110.56
533.153	123.56
533.367	116.56
533.582	114.56
533.796	124.56
534.011	126.56
534.225	120.56
534.44	124.56
534.654	107.56
534.868	127.56
535.083	109.56
535.297	128.56
535.511	124.56
535.726	136.56
535.94	128.56
536.154	128.56
536.369	126.56
536.583	124.56
536.797	120.56
537.011	111.56
537.225	110.56
537.44	116.56
537.654	116.56
537.868	121.56
538.082	132.56
538.296	130.56
538.51	129.56
538.724	121.56
538.938	118.56
539.153	113.56
539.367	122.56
539.581	121.56
539.795	136.56
540.009	124.56
540.222	112.56
540.436	118.56
540.65	109.56
540.864	116.56
541.078	122.56
541.292	146.56
541.506	127.56
541.72	137.56
541.934	140.56
542.147	137.56
542.361	134.56
542.575	136.56
542.789	134.56
543.002	130.56
543.216	120.56
543.43	116.56
543.644	133.56
543.857	132.56
544.071	122.56
544.285	140.56
544.498	121.56
544.712	135.56
544.925	137.56
545.139	135.56
545.352	120.56
545.566	124.56
545.779	125.56
545.993	133.56
546.206	143.56
546.42	136.56
546.633	134.56
546.847	132.56
547.06	112.56
547.274	132.56
547.487	132.56
547.7	123.56
547.914	129.56
548.127	119.56
548.34	120.56
548.554	122.56
548.767	128.56
548.98	124.56
549.193	117.56
549.407	124.56
549.62	121.56
549.833	123.56
550.046	129.56
550.259	126.56
550.473	115.56
550.686	123.56
550.899	137.56
551.112	114.56
551.325	120.56
551.538	117.56
551.751	116.56
551.964	113.56
552.177	126.56
552.39	137.56
552.603	124.56
552.816	130.56
553.029	129.56
553.242	119.56
553.455	150.56
553.667	124.56
553.88	143.56
554.093	130.56
554.306	136.56
554.519	134.56
554.732	123.56
554.944	106.56
555.157	129.56
555.37	130.56
555.583	123.56
555.795	125.56
556.008	125.56
556.221	128.56
556.433	120.56
556.646	108.56
556.859	104.56
557.071	119.56
557.284	114.56
557.496	124.56
557.709	107.56
557.921	121.56
558.134	115.56
558.346	133.56
558.559	127.56
558.771	128.56
558.984	113.56
559.196	88.56
559.409	124.56
559.621	117.56
559.833	108.56
560.046	116.56
560.258	116.56
560.47	115.56
560.683	113.56
560.895	121.56
561.107	112.56
561.32	125.56
561.532	117.56
561.744	117.56
561.956	118.56
562.168	118.56
562.381	109.56
562.593	115.56
562.805	125.56
563.017	131.56
563.229	128.56
563.441	112.56
563.653	113.56
563.865	108.56
564.077	115.56
564.289	124.56
564.501	132.56
564.713	114.56
564.925	115.56
565.137	116.56
565.349	124.56
565.561	120.56
565.773	124.56
565.985	130.56
566.197	125.56
566.408	120.56
566.62	131.56
566.832	140.56
567.044	128.56
567.255	147.56
567.467	142.56
567.679	124.56
567.891	133.56
568.102	142.56
568.314	139.56
568.526	124.56
568.737	120.56
568.949	122.56
569.161	116.56
569.372	112.56
569.584	110.56
569.795	101.56
570.007	120.56
570.218	110.56
570.43	124.56
570.641	106.56
570.853	136.56
571.064	126.56
571.276	118.56
571.487	117.56
571.698	116.56
571.91	96.56
572.121	124.56
572.333	118.56
572.544	133.56
572.755	110.56
572.966	107.56
573.178	104.56
573.389	124.56
573.6	114.56
573.811	107.56
574.023	108.56
574.234	120.56
574.445	116.56
574.656	112.56
574.867	104.56
575.078	122.56
575.289	106.56
575.501	107.56
575.712	99.56
575.923	98.56
576.134	110.56
576.345	122.56
576.556	114.56
576.767	123.56
576.978	116.56
577.188	131.56
577.399	112.56
577.61	89.56
577.821	103.56
578.032	95.56
578.243	103.56
578.454	122.56
578.665	103.56
578.875	117.56
579.086	112.56
579.297	112.56
579.508	102.56
579.718	103.56
579.929	94.56
580.14	114.56
580.35	98.56
580.561	95.56
580.772	102.56
580.982	113.56
581.193	97.56
581.403	110.56
581.614	107.56
581.825	113.56
582.035	118.56
582.246	105.56
582.456	117.56
582.667	110.56
582.877	109.56
583.087	128.56
583.298	107.56
583.508	104.56
583.719	95.56
583.929	100.56
584.139	125.56
584.35	96.56
584.56	118.56
584.77	105.56
584.981	107.56
585.191	115.56
585.401	100.56
585.611	109.56
585.821	97.56
586.032	112.56
586.242	114.56
586.452	92.56
586.662	116.56
586.872	106.56
587.082	107.56
587.292	106.56
587.502	115.56
587.713	110.56
587.923	96.56
588.133	110.56
588.343	105.56
588.553	106.56
588.762	101.56
588.972	99.56
589.182	106.56
589.392	92.56
589.602	114.56
589.812	112.56
590.022	94.56
590.232	101.56
590.441	104.56
590.651	99.56
590.861	106.56
591.071	107.56
591.281	109.56
591.49	104.56
591.7	112.56
591.91	109.56
592.119	116.56
592.329	103.56
592.539	92.56
592.748	110.56
592.958	127.56
593.167	120.56
593.377	115.56
593.587	125.56
593.796	101.56
594.006	112.56
594.215	108.56
594.424	95.56
594.634	109.56
594.843	113.56
595.053	108.56
595.262	101.56
595.472	110.56
595.681	104.56
595.89	107.56
596.1	104.56
596.309	103.56
596.518	114.56
596.727	103.56
596.937	108.56
597.146	99.56
597.355	111.56
597.564	101.56
597.774	116.56
597.983	100.56
598.192	102.56
598.401	94.56
598.61	86.56
598.819	90.56
599.028	91.56
599.237	114.56
599.446	93.56
599.655	108.56
599.864	109.56
600.073	111.56
600.282	90.56
600.491	100.56
600.7	90.56
600.909	98.56
601.118	102.56
601.327	99.56
601.536	96.56
601.745	109.56
601.953	102.56
602.162	102.56
602.371	108.56
602.58	113.56
602.789	113.56
602.997	102.56
603.206	102.56
603.415	101.56
603.623	90.56
603.832	100.56
604.041	105.56
604.249	98.56
604.458	103.56
604.666	92.56
604.875	97.56
605.084	104.56
605.292	105.56
605.501	96.56
605.709	109.56
605.918	108.56
606.126	103.56
606.334	104.56
606.543	108.56
606.751	109.56
606.96	104.56
607.168	104.56
607.376	106.56
607.585	102.56
607.793	99.56
608.001	103.56
608.21	102.56
608.418	104.56
608.626	99.56
608.834	113.56
609.043	128.56
609.251	120.56
609.459	110.56
609.667	111.56
609.875	95.56
610.083	112.56
610.291	104.56
610.499	92.56
610.707	109.56
610.916	109.56
611.124	100.56
611.332	101.56
611.54	117.56
611.748	97.56
611.955	104.56
612.163	113.56
612.371	97.56
612.579	107.56
612.787	98.56
612.995	97.56
613.203	98.56
613.411	107.56
613.618	113.56
613.826	108.56
614.034	109.56
614.242	108.56
614.449	119.56
614.657	101.56
614.865	106.56
615.072	106.56
615.28	104.56
615.488	121.56
615.695	105.56
615.903	113.56
616.111	105.56
616.318	115.56
616.526	95.56
616.733	110.56
616.941	108.56
617.148	106.56
617.356	109.56
617.563	94.56
617.771	96.56
617.978	104.56
618.185	100.56
618.393	112.56
618.6	98.56
618.807	122.56
619.015	98.56
619.222	88.56
619.429	101.56
619.637	100.56
619.844	93.56
620.051	105.56
620.258	103.56
620.466	98.56
620.673	100.56
620.88	101.56
621.087	86.56
621.294	90.56
621.501	101.56
621.708	94.56
621.915	109.56
622.122	97.56
622.329	101.56
622.536	106.56
622.743	104.56
622.95	84.56
623.157	99.56
623.364	99.56
623.571	97.56
623.778	84.56
623.985	99.56
624.192	94.56
624.399	98.56
624.606	103.56
624.812	110.56
625.019	105.56
625.226	102.56
625.433	108.56
625.639	99.56
625.846	92.56
626.053	96.56
626.259	99.56
626.466	98.56
626.673	104.56
626.879	97.56
627.086	96.56
627.293	112.56
627.499	85.56
627.706	87.56
627.912	100.56
628.119	100.56
628.325	107.56
628.532	104.56
628.738	100.56
628.945	93.56
629.151	109.56
629.357	101.56
629.564	96.56
629.77	81.56
629.976	97.56
630.183	81.56
630.389	83.56
630.595	77.56
630.802	85.56
631.008	112.56
631.214	112.56
631.42	89.56
631.627	99.56
631.833	93.56
632.039	96.56
632.245	97.56
632.451	101.56
632.657	100.56
632.863	103.56
633.069	101.56
633.275	84.56
633.481	90.56
633.688	91.56
633.893	95.56
634.099	88.56
634.305	103.56
634.511	93.56
634.717	100.56
634.923	91.56
635.129	102.56
635.335	96.56
635.541	83.56
635.747	97.56
635.952	89.56
636.158	97.56
636.364	112.56
636.57	98.56
636.775	85.56
636.981	91.56
637.187	105.56
637.392	80.56
637.598	88.56
637.804	98.56
638.009	100.56
638.215	100.56
638.421	98.56
638.626	95.56
638.832	80.56
639.037	91.56
639.243	102.56
639.448	93.56
639.654	107.56
639.859	101.56
640.065	78.56
640.27	95.56
640.475	87.56
640.681	99.56
640.886	96.56
641.091	96.56
641.297	78.56
641.502	95.56
641.707	98.56
641.913	103.56
642.118	88.56
642.323	100.56
642.528	96.56
642.733	92.56
642.939	107.56
643.144	93.56
643.349	87.56
643.554	88.56
643.759	96.56
643.964	85.56
644.169	102.56
644.374	85.56
644.579	96.56
644.784	88.56
644.989	84.56
645.194	100.56
645.399	98.56
645.604	106.56
645.809	101.56
646.014	96.56
646.219	103.56
646.423	89.56
646.628	84.56
646.833	101.56
647.038	89.56
647.243	88.56
647.447	87.56
647.652	99.56
647.857	92.56
648.062	85.56
648.266	82.56
648.471	88.56
648.676	86.56
648.88	97.56
649.085	90.56
649.289	82.56
649.494	96.56
649.698	94.56
649.903	97.56
650.107	83.56
650.312	96.56
650.516	86.56
650.721	87.56
650.925	85.56
651.13	104.56
651.334	89.56
651.539	84.56
651.743	77.56
651.947	102.56
652.152	99.56
652.356	104.56
652.56	88.56
652.764	105.56
652.969	89.56
653.173	99.56
653.377	96.56
653.581	83.56
653.785	86.56
653.99	92.56
654.194	78.56
654.398	96.56
654.602	89.56
654.806	77.56
655.01	88.56
655.214	93.56
655.418	85.56
655.622	90.56
655.826	99.56
656.03	97.56
656.234	72.56
656.438	78.56
656.642	93.56
656.846	97.56
657.049	94.56
657.253	92.56
657.457	86.56
657.661	94.56
657.865	91.56
658.068	86.56
658.272	96.56
658.476	91.56
658.68	85.56
658.883	88.56
659.087	81.56
659.291	82.56
659.494	85.56
659.698	82.56
659.901	86.56
660.105	77.56
660.309	85.56
660.512	87.56
660.716	77.56
660.919	77.56
661.123	74.56
661.326	78.56
661.53	83.56
661.733	84.56
661.936	92.56
662.14	86.56
662.343	89.56
662.546	96.56
662.75	88.56
662.953	77.56
663.156	73.56
663.36	89.56
663.563	88.56
663.766	93.56
663.969	72.56
664.173	79.56
664.376	85.56
664.579	86.56
664.782	70.56
664.985	83.56
665.188	86.56
665.391	86.56
665.594	83.56
665.797	91.56
666	92.56
666.203	86.56
666.406	94.56
666.609	80.56
666.812	76.56
667.015	96.56
667.218	100.56
667.421	74.56
667.624	86.56
667.827	67.56
668.03	83.56
668.232	76.56
668.435	73.56
668.638	81.56
668.841	84.56
669.043	92.56
669.246	68.56
669.449	72.56
669.651	81.56
669.854	87.56
670.057	77.56
670.259	87.56
670.462	61.56
670.665	76.56
670.867	92.56
671.07	71.56
671.272	87.56
671.475	93.56
671.677	73.56
671.88	84.56
672.082	84.56
672.284	94.56
672.487	75.56
672.689	88.56
672.892	70.56
