Data from 1969.PennyLincolnUp.Lamp.En5.5.200Scan.071719.P1._HRD10591_14-56-36-973.txt Node
Date: Thu Jul 18 14:56:36 EDT 2019
User: cochatt
Spectrometer: HR+D1059
Trigger mode: 1
Integration Time (sec): 1.000000E-1
Scans to average: 1
Electric dark correction enabled: true
Nonlinearity correction enabled: false
Boxcar width: 0
XAxis mode: Wavelengths
Number of Pixels in Spectrum: 2048
>>>>>Begin Spectral Data<<<<<
223.165	-24.88
223.4	-24.88
223.635	-24.88
223.869	-10.88
224.104	-8.88
224.338	-2.88
224.573	-4.88
224.808	-12.88
225.042	-9.88
225.277	-0.88
225.511	-15.88
225.746	-0.88
225.98	10.12
226.215	-6.88
226.449	15.12
226.683	21.12
226.918	20.12
227.152	33.12
227.387	45.12
227.621	25.12
227.856	40.12
228.09	41.12
228.324	56.12
228.559	57.12
228.793	60.12
229.027	87.12
229.262	101.12
229.496	101.12
229.73	109.12
229.964	120.12
230.199	102.12
230.433	103.12
230.667	108.12
230.901	111.12
231.136	113.12
231.37	125.12
231.604	92.12
231.838	115.12
232.072	104.12
232.306	115.12
232.541	107.12
232.775	99.12
233.009	105.12
233.243	115.12
233.477	98.12
233.711	111.12
233.945	92.12
234.179	112.12
234.413	111.12
234.647	104.12
234.881	113.12
235.115	109.12
235.349	104.12
235.583	117.12
235.817	115.12
236.051	110.12
236.285	127.12
236.519	102.12
236.753	115.12
236.987	123.12
237.221	131.12
237.455	173.12
237.689	153.12
237.922	123.12
238.156	117.12
238.39	112.12
238.624	118.12
238.858	106.12
239.091	123.12
239.325	119.12
239.559	127.12
239.793	113.12
240.027	127.12
240.26	131.12
240.494	141.12
240.728	137.12
240.961	135.12
241.195	134.12
241.429	122.12
241.662	122.12
241.896	125.12
242.13	123.12
242.363	119.12
242.597	113.12
242.83	129.12
243.064	126.12
243.298	125.12
243.531	115.12
243.765	130.12
243.998	124.12
244.232	127.12
244.465	143.12
244.699	132.12
244.932	128.12
245.166	132.12
245.399	135.12
245.633	133.12
245.866	147.12
246.099	154.12
246.333	144.12
246.566	140.12
246.8	146.12
247.033	132.12
247.266	143.12
247.5	125.12
247.733	142.12
247.966	150.12
248.2	159.12
248.433	159.12
248.666	155.12
248.899	158.12
249.133	173.12
249.366	179.12
249.599	165.12
249.832	160.12
250.066	160.12
250.299	170.12
250.532	167.12
250.765	185.12
250.998	197.12
251.231	195.12
251.465	174.12
251.698	168.12
251.931	167.12
252.164	176.12
252.397	159.12
252.63	175.12
252.863	175.12
253.096	186.12
253.329	182.12
253.562	189.12
253.795	174.12
254.028	199.12
254.261	176.12
254.494	200.12
254.727	204.12
254.96	214.12
255.193	227.12
255.426	204.12
255.659	193.12
255.892	208.12
256.124	186.12
256.357	193.12
256.59	195.12
256.823	190.12
257.056	161.12
257.289	180.12
257.521	177.12
257.754	164.12
257.987	174.12
258.22	176.12
258.452	174.12
258.685	183.12
258.918	156.12
259.151	179.12
259.383	202.12
259.616	188.12
259.849	192.12
260.081	191.12
260.314	219.12
260.547	212.12
260.779	201.12
261.012	212.12
261.244	195.12
261.477	198.12
261.71	174.12
261.942	203.12
262.175	202.12
262.407	187.12
262.64	188.12
262.872	159.12
263.105	187.12
263.337	190.12
263.57	199.12
263.802	196.12
264.035	189.12
264.267	193.12
264.499	181.12
264.732	190.12
264.964	183.12
265.197	195.12
265.429	192.12
265.661	191.12
265.894	182.12
266.126	192.12
266.358	188.12
266.591	204.12
266.823	197.12
267.055	191.12
267.287	195.12
267.52	197.12
267.752	202.12
267.984	209.12
268.216	202.12
268.448	195.12
268.681	213.12
268.913	207.12
269.145	228.12
269.377	238.12
269.609	234.12
269.841	239.12
270.073	231.12
270.306	252.12
270.538	261.12
270.77	269.12
271.002	238.12
271.234	265.12
271.466	241.12
271.698	258.12
271.93	250.12
272.162	266.12
272.394	262.12
272.626	261.12
272.858	252.12
273.09	239.12
273.322	237.12
273.553	237.12
273.785	230.12
274.017	222.12
274.249	235.12
274.481	243.12
274.713	236.12
274.945	239.12
275.176	224.12
275.408	204.12
275.64	223.12
275.872	211.12
276.104	213.12
276.335	249.12
276.567	235.12
276.799	238.12
277.031	269.12
277.262	277.12
277.494	267.12
277.726	240.12
277.957	253.12
278.189	251.12
278.421	234.12
278.652	228.12
278.884	228.12
279.115	241.12
279.347	229.12
279.579	234.12
279.81	232.12
280.042	223.12
280.273	244.12
280.505	238.12
280.736	236.12
280.968	238.12
281.199	236.12
281.431	245.12
281.662	231.12
281.894	243.12
282.125	252.12
282.356	252.12
282.588	270.12
282.819	255.12
283.051	265.12
283.282	251.12
283.513	248.12
283.745	254.12
283.976	254.12
284.207	247.12
284.439	248.12
284.67	249.12
284.901	250.12
285.132	251.12
285.364	255.12
285.595	280.12
285.826	245.12
286.057	261.12
286.288	275.12
286.52	260.12
286.751	250.12
286.982	240.12
287.213	244.12
287.444	257.12
287.675	247.12
287.906	277.12
288.138	258.12
288.369	282.12
288.6	256.12
288.831	261.12
289.062	258.12
289.293	273.12
289.524	260.12
289.755	268.12
289.986	252.12
290.217	274.12
290.448	259.12
290.679	267.12
290.91	279.12
291.141	279.12
291.371	265.12
291.602	269.12
291.833	263.12
292.064	265.12
292.295	268.12
292.526	256.12
292.757	254.12
292.987	259.12
293.218	275.12
293.449	261.12
293.68	268.12
293.91	249.12
294.141	264.12
294.372	276.12
294.603	257.12
294.833	263.12
295.064	273.12
295.295	264.12
295.525	263.12
295.756	260.12
295.987	274.12
296.217	274.12
296.448	288.12
296.679	265.12
296.909	260.12
297.14	289.12
297.37	282.12
297.601	258.12
297.831	271.12
298.062	282.12
298.292	264.12
298.523	274.12
298.753	269.12
298.984	276.12
299.214	286.12
299.445	276.12
299.675	287.12
299.905	286.12
300.136	263.12
300.366	287.12
300.597	299.12
300.827	293.12
301.057	291.12
301.288	295.12
301.518	284.12
301.748	285.12
301.979	301.12
302.209	300.12
302.439	319.12
302.669	288.12
302.9	305.12
303.13	296.12
303.36	286.12
303.59	303.12
303.82	311.12
304.051	299.12
304.281	302.12
304.511	313.12
304.741	304.12
304.971	307.12
305.201	299.12
305.431	297.12
305.661	314.12
305.891	287.12
306.121	286.12
306.352	280.12
306.582	296.12
306.812	295.12
307.042	308.12
307.272	302.12
307.502	291.12
307.731	293.12
307.961	298.12
308.191	289.12
308.421	289.12
308.651	302.12
308.881	309.12
309.111	289.12
309.341	304.12
309.571	296.12
309.8	316.12
310.03	316.12
310.26	317.12
310.49	323.12
310.72	330.12
310.949	341.12
311.179	331.12
311.409	315.12
311.639	323.12
311.868	319.12
312.098	337.12
312.328	317.12
312.557	330.12
312.787	336.12
313.017	339.12
313.246	343.12
313.476	310.12
313.706	324.12
313.935	340.12
314.165	341.12
314.394	343.12
314.624	319.12
314.853	309.12
315.083	333.12
315.312	334.12
315.542	329.12
315.771	318.12
316.001	330.12
316.23	332.12
316.46	334.12
316.689	316.12
316.919	334.12
317.148	322.12
317.377	326.12
317.607	322.12
317.836	316.12
318.065	341.12
318.295	329.12
318.524	347.12
318.753	317.12
318.983	339.12
319.212	323.12
319.441	340.12
319.67	354.12
319.9	310.12
320.129	337.12
320.358	325.12
320.587	321.12
320.816	322.12
321.046	318.12
321.275	320.12
321.504	320.12
321.733	340.12
321.962	356.12
322.191	352.12
322.42	344.12
322.649	356.12
322.878	372.12
323.108	360.12
323.337	385.12
323.566	371.12
323.795	404.12
324.024	440.12
324.253	468.12
324.482	657.12
324.71	908.12
324.939	1225.12
325.168	1030.12
325.397	586.12
325.626	463.12
325.855	408.12
326.084	402.12
326.313	393.12
326.542	387.12
326.77	408.12
326.999	470.12
327.228	570.12
327.457	830.12
327.686	958.12
327.914	683.12
328.143	488.12
328.372	451.12
328.6	437.12
328.829	428.12
329.058	439.12
329.287	432.12
329.515	443.12
329.744	403.12
329.972	394.12
330.201	429.12
330.43	441.12
330.658	456.12
330.887	467.12
331.115	460.12
331.344	436.12
331.572	399.12
331.801	402.12
332.03	400.12
332.258	413.12
332.486	397.12
332.715	391.12
332.943	405.12
333.172	415.12
333.4	422.12
333.629	423.12
333.857	437.12
334.085	441.12
334.314	437.12
334.542	477.12
334.771	470.12
334.999	435.12
335.227	414.12
335.455	397.12
335.684	391.12
335.912	396.12
336.14	392.12
336.369	396.12
336.597	398.12
336.825	413.12
337.053	393.12
337.281	376.12
337.51	378.12
337.738	383.12
337.966	378.12
338.194	388.12
338.422	369.12
338.65	369.12
338.878	384.12
339.106	358.12
339.334	379.12
339.562	363.12
339.79	361.12
340.018	381.12
340.246	355.12
340.474	365.12
340.702	371.12
340.93	379.12
341.158	380.12
341.386	366.12
341.614	359.12
341.842	363.12
342.07	374.12
342.298	354.12
342.526	381.12
342.754	367.12
342.981	356.12
343.209	359.12
343.437	367.12
343.665	383.12
343.893	387.12
344.12	404.12
344.348	386.12
344.576	369.12
344.804	377.12
345.031	399.12
345.259	369.12
345.487	377.12
345.714	368.12
345.942	349.12
346.17	369.12
346.397	338.12
346.625	348.12
346.853	359.12
347.08	358.12
347.308	348.12
347.535	354.12
347.763	350.12
347.99	343.12
348.218	365.12
348.445	379.12
348.673	363.12
348.9	352.12
349.128	351.12
349.355	335.12
349.583	367.12
349.81	333.12
350.037	337.12
350.265	355.12
350.492	324.12
350.72	332.12
350.947	360.12
351.174	359.12
351.402	350.12
351.629	346.12
351.856	338.12
352.083	367.12
352.311	348.12
352.538	348.12
352.765	376.12
352.992	343.12
353.22	345.12
353.447	345.12
353.674	344.12
353.901	339.12
354.128	336.12
354.355	342.12
354.583	328.12
354.81	330.12
355.037	348.12
355.264	321.12
355.491	323.12
355.718	328.12
355.945	315.12
356.172	320.12
356.399	324.12
356.626	338.12
356.853	333.12
357.08	323.12
357.307	334.12
357.534	332.12
357.761	319.12
357.988	331.12
358.215	332.12
358.441	321.12
358.668	336.12
358.895	336.12
359.122	335.12
359.349	327.12
359.576	337.12
359.802	361.12
360.029	356.12
360.256	382.12
360.483	365.12
360.709	344.12
360.936	346.12
361.163	338.12
361.39	348.12
361.616	343.12
361.843	338.12
362.07	347.12
362.296	342.12
362.523	350.12
362.749	349.12
362.976	311.12
363.203	341.12
363.429	341.12
363.656	338.12
363.882	332.12
364.109	326.12
364.335	328.12
364.562	314.12
364.788	323.12
365.015	320.12
365.241	321.12
365.468	339.12
365.694	344.12
365.92	347.12
366.147	321.12
366.373	336.12
366.599	311.12
366.826	320.12
367.052	329.12
367.278	324.12
367.505	328.12
367.731	335.12
367.957	336.12
368.184	321.12
368.41	332.12
368.636	360.12
368.862	346.12
369.089	323.12
369.315	332.12
369.541	327.12
369.767	343.12
369.993	340.12
370.219	332.12
370.445	331.12
370.672	352.12
370.898	334.12
371.124	319.12
371.35	355.12
371.576	346.12
371.802	344.12
372.028	362.12
372.254	348.12
372.48	334.12
372.706	334.12
372.932	333.12
373.158	344.12
373.384	333.12
373.61	332.12
373.835	315.12
374.061	335.12
374.287	343.12
374.513	357.12
374.739	350.12
374.965	339.12
375.191	350.12
375.416	340.12
375.642	372.12
375.868	355.12
376.094	357.12
376.319	347.12
376.545	341.12
376.771	341.12
376.997	339.12
377.222	343.12
377.448	329.12
377.674	356.12
377.899	338.12
378.125	339.12
378.35	337.12
378.576	334.12
378.802	340.12
379.027	334.12
379.253	333.12
379.478	324.12
379.704	340.12
379.929	323.12
380.155	337.12
380.38	341.12
380.606	360.12
380.831	347.12
381.057	364.12
381.282	352.12
381.507	354.12
381.733	343.12
381.958	332.12
382.184	351.12
382.409	332.12
382.634	341.12
382.86	354.12
383.085	374.12
383.31	356.12
383.535	363.12
383.761	347.12
383.986	345.12
384.211	366.12
384.436	355.12
384.662	367.12
384.887	381.12
385.112	378.12
385.337	360.12
385.562	371.12
385.787	385.12
386.013	384.12
386.238	379.12
386.463	377.12
386.688	391.12
386.913	371.12
387.138	364.12
387.363	377.12
387.588	373.12
387.813	369.12
388.038	366.12
388.263	381.12
388.488	361.12
388.713	378.12
388.938	357.12
389.163	363.12
389.387	379.12
389.612	375.12
389.837	395.12
390.062	376.12
390.287	371.12
390.512	372.12
390.736	360.12
390.961	343.12
391.186	381.12
391.411	385.12
391.636	383.12
391.86	408.12
392.085	385.12
392.31	394.12
392.534	383.12
392.759	393.12
392.984	362.12
393.208	389.12
393.433	400.12
393.658	383.12
393.882	377.12
394.107	390.12
394.331	372.12
394.556	380.12
394.78	389.12
395.005	373.12
395.229	390.12
395.454	389.12
395.678	391.12
395.903	398.12
396.127	406.12
396.352	396.12
396.576	409.12
396.801	406.12
397.025	400.12
397.249	386.12
397.474	393.12
397.698	394.12
397.922	420.12
398.147	426.12
398.371	407.12
398.595	421.12
398.82	430.12
399.044	465.12
399.268	497.12
399.492	509.12
399.717	585.12
399.941	547.12
400.165	547.12
400.389	511.12
400.613	484.12
400.837	470.12
401.062	471.12
401.286	447.12
401.51	431.12
401.734	435.12
401.958	447.12
402.182	452.12
402.406	466.12
402.63	461.12
402.854	456.12
403.078	450.12
403.302	446.12
403.526	471.12
403.75	486.12
403.974	487.12
404.198	458.12
404.422	473.12
404.645	477.12
404.869	472.12
405.093	480.12
405.317	496.12
405.541	518.12
405.765	484.12
405.988	480.12
406.212	505.12
406.436	458.12
406.66	509.12
406.883	485.12
407.107	497.12
407.331	556.12
407.555	594.12
407.778	597.12
408.002	537.12
408.226	508.12
408.449	488.12
408.673	485.12
408.896	493.12
409.12	517.12
409.344	512.12
409.567	483.12
409.791	465.12
410.014	475.12
410.238	468.12
410.461	458.12
410.685	466.12
410.908	484.12
411.132	491.12
411.355	499.12
411.578	473.12
411.802	455.12
412.025	454.12
412.249	472.12
412.472	484.12
412.695	497.12
412.919	464.12
413.142	454.12
413.365	454.12
413.589	439.12
413.812	439.12
414.035	422.12
414.258	432.12
414.482	423.12
414.705	427.12
414.928	429.12
415.151	427.12
415.374	415.12
415.597	430.12
415.821	443.12
416.044	433.12
416.267	429.12
416.49	442.12
416.713	428.12
416.936	429.12
417.159	422.12
417.382	430.12
417.605	421.12
417.828	452.12
418.051	452.12
418.274	431.12
418.497	430.12
418.72	425.12
418.943	418.12
419.166	456.12
419.389	473.12
419.611	458.12
419.834	461.12
420.057	480.12
420.28	469.12
420.503	444.12
420.726	438.12
420.948	444.12
421.171	495.12
421.394	483.12
421.617	471.12
421.839	440.12
422.062	451.12
422.285	441.12
422.507	469.12
422.73	527.12
422.953	517.12
423.175	472.12
423.398	473.12
423.621	480.12
423.843	468.12
424.066	486.12
424.288	470.12
424.511	495.12
424.733	507.12
424.956	545.12
425.178	517.12
425.401	532.12
425.623	549.12
425.846	463.12
426.068	461.12
426.291	458.12
426.513	451.12
426.735	459.12
426.958	479.12
427.18	535.12
427.402	610.12
427.625	651.12
427.847	570.12
428.069	503.12
428.292	478.12
428.514	427.12
428.736	414.12
428.958	423.12
429.181	437.12
429.403	421.12
429.625	436.12
429.847	473.12
430.069	474.12
430.292	462.12
430.514	415.12
430.736	421.12
430.958	418.12
431.18	412.12
431.402	402.12
431.624	409.12
431.846	395.12
432.068	397.12
432.29	407.12
432.512	391.12
432.734	409.12
432.956	411.12
433.178	406.12
433.4	437.12
433.622	408.12
433.844	427.12
434.066	413.12
434.287	422.12
434.509	411.12
434.731	433.12
434.953	431.12
435.175	460.12
435.397	473.12
435.618	445.12
435.84	447.12
436.062	533.12
436.284	539.12
436.505	482.12
436.727	455.12
436.949	431.12
437.17	415.12
437.392	404.12
437.614	415.12
437.835	422.12
438.057	501.12
438.278	541.12
438.5	539.12
438.721	592.12
438.943	554.12
439.165	468.12
439.386	435.12
439.608	440.12
439.829	454.12
440.05	450.12
440.272	480.12
440.493	457.12
440.715	439.12
440.936	439.12
441.158	440.12
441.379	428.12
441.6	438.12
441.822	464.12
442.043	485.12
442.264	525.12
442.486	537.12
442.707	494.12
442.928	480.12
443.149	477.12
443.371	484.12
443.592	520.12
443.813	574.12
444.034	580.12
444.255	506.12
444.476	486.12
444.698	479.12
444.919	483.12
445.14	579.12
445.361	550.12
445.582	507.12
445.803	509.12
446.024	560.12
446.245	559.12
446.466	499.12
446.687	457.12
446.908	449.12
447.129	428.12
447.35	412.12
447.571	426.12
447.792	408.12
448.013	428.12
448.234	406.12
448.455	453.12
448.675	521.12
448.896	564.12
449.117	493.12
449.338	484.12
449.559	544.12
449.779	575.12
450	492.12
450.221	435.12
450.442	393.12
450.662	411.12
450.883	411.12
451.104	396.12
451.324	400.12
451.545	407.12
451.766	391.12
451.986	371.12
452.207	373.12
452.428	358.12
452.648	387.12
452.869	395.12
453.089	375.12
453.31	388.12
453.53	383.12
453.751	355.12
453.971	365.12
454.192	365.12
454.412	380.12
454.633	367.12
454.853	395.12
455.073	378.12
455.294	369.12
455.514	409.12
455.734	401.12
455.955	380.12
456.175	360.12
456.395	336.12
456.616	349.12
456.836	350.12
457.056	364.12
457.276	347.12
457.497	349.12
457.717	357.12
457.937	366.12
458.157	372.12
458.377	379.12
458.598	379.12
458.818	420.12
459.038	469.12
459.258	489.12
459.478	415.12
459.698	431.12
459.918	406.12
460.138	424.12
460.358	423.12
460.578	427.12
460.798	457.12
461.018	437.12
461.238	436.12
461.458	415.12
461.678	403.12
461.898	434.12
462.118	425.12
462.338	455.12
462.558	453.12
462.777	453.12
462.997	489.12
463.217	512.12
463.437	507.12
463.657	483.12
463.876	480.12
464.096	483.12
464.316	455.12
464.536	468.12
464.755	468.12
464.975	470.12
465.195	477.12
465.414	513.12
465.634	453.12
465.854	422.12
466.073	413.12
466.293	394.12
466.512	389.12
466.732	371.12
466.951	400.12
467.171	400.12
467.391	396.12
467.61	409.12
467.829	406.12
468.049	387.12
468.268	385.12
468.488	385.12
468.707	368.12
468.927	367.12
469.146	389.12
469.365	389.12
469.585	384.12
469.804	394.12
470.023	413.12
470.243	407.12
470.462	403.12
470.681	411.12
470.901	413.12
471.12	396.12
471.339	417.12
471.558	414.12
471.777	393.12
471.997	399.12
472.216	413.12
472.435	430.12
472.654	399.12
472.873	381.12
473.092	389.12
473.311	383.12
473.53	393.12
473.749	393.12
473.968	407.12
474.187	490.12
474.406	484.12
474.625	427.12
474.844	407.12
475.063	401.12
475.282	395.12
475.501	395.12
475.72	401.12
475.939	391.12
476.158	397.12
476.377	388.12
476.596	384.12
476.814	401.12
477.033	427.12
477.252	406.12
477.471	418.12
477.69	395.12
477.908	423.12
478.127	445.12
478.346	431.12
478.564	429.12
478.783	440.12
479.002	447.12
479.22	454.12
479.439	457.12
479.658	468.12
479.876	485.12
480.095	470.12
480.313	501.12
480.532	485.12
480.751	465.12
480.969	475.12
481.188	535.12
481.406	526.12
481.624	479.12
481.843	455.12
482.061	453.12
482.28	464.12
482.498	429.12
482.717	424.12
482.935	437.12
483.153	430.12
483.372	448.12
483.59	452.12
483.808	445.12
484.027	441.12
484.245	443.12
484.463	440.12
484.681	474.12
484.9	457.12
485.118	464.12
485.336	472.12
485.554	451.12
485.772	443.12
485.99	452.12
486.209	469.12
486.427	455.12
486.645	480.12
486.863	473.12
487.081	467.12
487.299	465.12
487.517	475.12
487.735	494.12
487.953	484.12
488.171	486.12
488.389	461.12
488.607	487.12
488.825	488.12
489.043	500.12
489.261	492.12
489.479	462.12
489.696	514.12
489.914	488.12
490.132	500.12
490.35	501.12
490.568	506.12
490.786	527.12
491.003	503.12
491.221	522.12
491.439	517.12
491.657	553.12
491.874	543.12
492.092	542.12
492.31	559.12
492.527	556.12
492.745	579.12
492.963	565.12
493.18	559.12
493.398	575.12
493.615	566.12
493.833	564.12
494.05	556.12
494.268	563.12
494.485	557.12
494.703	549.12
494.92	574.12
495.138	543.12
495.355	599.12
495.573	560.12
495.79	562.12
496.008	560.12
496.225	559.12
496.442	561.12
496.66	553.12
496.877	550.12
497.094	602.12
497.312	589.12
497.529	613.12
497.746	594.12
497.963	614.12
498.181	633.12
498.398	630.12
498.615	649.12
498.832	651.12
499.049	679.12
499.267	701.12
499.484	766.12
499.701	829.12
499.918	845.12
500.135	907.12
500.352	976.12
500.569	1002.12
500.786	990.12
501.003	951.12
501.22	941.12
501.437	869.12
501.654	777.12
501.871	764.12
502.088	733.12
502.305	691.12
502.522	672.12
502.739	637.12
502.956	599.12
503.172	613.12
503.389	576.12
503.606	585.12
503.823	589.12
504.04	583.12
504.256	573.12
504.473	580.12
504.69	586.12
504.907	571.12
505.123	564.12
505.34	571.12
505.557	531.12
505.773	536.12
505.99	521.12
506.207	520.12
506.423	525.12
506.64	520.12
506.856	526.12
507.073	517.12
507.289	512.12
507.506	521.12
507.722	501.12
507.939	501.12
508.155	494.12
508.372	492.12
508.588	490.12
508.805	495.12
509.021	490.12
509.238	489.12
509.454	487.12
509.67	499.12
509.887	478.12
510.103	478.12
510.319	482.12
510.536	547.12
510.752	803.12
510.968	645.12
511.184	491.12
511.401	457.12
511.617	441.12
511.833	471.12
512.049	468.12
512.265	472.12
512.481	464.12
512.698	434.12
512.914	447.12
513.13	432.12
513.346	446.12
513.562	457.12
513.778	443.12
513.994	478.12
514.21	471.12
514.426	480.12
514.642	505.12
514.858	519.12
515.074	502.12
515.29	601.12
515.506	852.12
515.721	726.12
515.937	536.12
516.153	505.12
516.369	494.12
516.585	499.12
516.801	495.12
517.016	512.12
517.232	512.12
517.448	525.12
517.664	525.12
517.879	516.12
518.095	537.12
518.311	516.12
518.527	519.12
518.742	516.12
518.958	509.12
519.173	489.12
519.389	465.12
519.605	462.12
519.82	456.12
520.036	469.12
520.251	489.12
520.467	499.12
520.682	501.12
520.898	488.12
521.113	488.12
521.329	512.12
521.544	559.12
521.76	639.12
521.975	1063.12
522.19	1050.12
522.406	614.12
522.621	481.12
522.836	475.12
523.052	451.12
523.267	433.12
523.482	415.12
523.698	409.12
523.913	434.12
524.128	404.12
524.343	396.12
524.559	420.12
524.774	397.12
524.989	407.12
525.204	391.12
525.419	412.12
525.634	395.12
525.849	419.12
526.064	400.12
526.28	405.12
526.495	395.12
526.71	399.12
526.925	409.12
527.14	401.12
527.355	395.12
527.57	385.12
527.785	389.12
527.999	373.12
528.214	388.12
528.429	386.12
528.644	415.12
528.859	413.12
529.074	384.12
529.289	417.12
529.503	436.12
529.718	427.12
529.933	395.12
530.148	375.12
530.363	392.12
530.577	386.12
530.792	389.12
531.007	369.12
531.221	391.12
531.436	371.12
531.651	381.12
531.865	379.12
532.08	366.12
532.295	381.12
532.509	371.12
532.724	368.12
532.938	361.12
533.153	367.12
533.367	367.12
533.582	368.12
533.796	377.12
534.011	381.12
534.225	381.12
534.44	372.12
534.654	387.12
534.868	376.12
535.083	373.12
535.297	364.12
535.511	366.12
535.726	382.12
535.94	379.12
536.154	361.12
536.369	382.12
536.583	350.12
536.797	365.12
537.011	366.12
537.225	347.12
537.44	362.12
537.654	369.12
537.868	366.12
538.082	378.12
538.296	352.12
538.51	350.12
538.724	372.12
538.938	357.12
539.153	363.12
539.367	359.12
539.581	363.12
539.795	371.12
540.009	345.12
540.222	359.12
540.436	366.12
540.65	360.12
540.864	369.12
541.078	371.12
541.292	387.12
541.506	377.12
541.72	360.12
541.934	350.12
542.147	354.12
542.361	353.12
542.575	353.12
542.789	359.12
543.002	347.12
543.216	350.12
543.43	366.12
543.644	380.12
543.857	365.12
544.071	363.12
544.285	374.12
544.498	371.12
544.712	362.12
544.925	381.12
545.139	358.12
545.352	357.12
545.566	381.12
545.779	354.12
545.993	378.12
546.206	356.12
546.42	366.12
546.633	374.12
546.847	368.12
547.06	349.12
547.274	349.12
547.487	350.12
547.7	368.12
547.914	367.12
548.127	381.12
548.34	375.12
548.554	369.12
548.767	368.12
548.98	364.12
549.193	372.12
549.407	365.12
549.62	352.12
549.833	366.12
550.046	340.12
550.259	360.12
550.473	354.12
550.686	367.12
550.899	355.12
551.112	345.12
551.325	353.12
551.538	376.12
551.751	347.12
551.964	360.12
552.177	346.12
552.39	349.12
552.603	380.12
552.816	392.12
553.029	359.12
553.242	380.12
553.455	392.12
553.667	367.12
553.88	391.12
554.093	371.12
554.306	379.12
554.519	388.12
554.732	356.12
554.944	357.12
555.157	356.12
555.37	353.12
555.583	324.12
555.795	343.12
556.008	348.12
556.221	332.12
556.433	332.12
556.646	334.12
556.859	313.12
557.071	333.12
557.284	320.12
557.496	339.12
557.709	329.12
557.921	336.12
558.134	315.12
558.346	323.12
558.559	317.12
558.771	312.12
558.984	314.12
559.196	309.12
559.409	303.12
559.621	327.12
559.833	320.12
560.046	323.12
560.258	308.12
560.47	315.12
560.683	325.12
560.895	315.12
561.107	313.12
561.32	312.12
561.532	302.12
561.744	302.12
561.956	316.12
562.168	320.12
562.381	316.12
562.593	335.12
562.805	312.12
563.017	319.12
563.229	322.12
563.441	325.12
563.653	323.12
563.865	308.12
564.077	320.12
564.289	319.12
564.501	337.12
564.713	320.12
564.925	333.12
565.137	353.12
565.349	357.12
565.561	357.12
565.773	363.12
565.985	378.12
566.197	373.12
566.408	393.12
566.62	398.12
566.832	404.12
567.044	452.12
567.255	457.12
567.467	438.12
567.679	443.12
567.891	477.12
568.102	481.12
568.314	465.12
568.526	421.12
568.737	393.12
568.949	381.12
569.161	366.12
569.372	341.12
569.584	337.12
569.795	324.12
570.007	331.12
570.218	356.12
570.43	337.12
570.641	316.12
570.853	317.12
571.064	331.12
571.276	341.12
571.487	316.12
571.698	317.12
571.91	295.12
572.121	304.12
572.333	299.12
572.544	283.12
572.755	303.12
572.966	282.12
573.178	281.12
573.389	293.12
573.6	279.12
573.811	283.12
574.023	270.12
574.234	265.12
574.445	260.12
574.656	278.12
574.867	254.12
575.078	263.12
575.289	270.12
575.501	271.12
575.712	277.12
575.923	271.12
576.134	261.12
576.345	262.12
576.556	273.12
576.767	267.12
576.978	260.12
577.188	269.12
577.399	265.12
577.61	277.12
577.821	288.12
578.032	262.12
578.243	285.12
578.454	391.12
578.665	320.12
578.875	241.12
579.086	247.12
579.297	263.12
579.508	263.12
579.718	244.12
579.929	265.12
580.14	255.12
580.35	253.12
580.561	246.12
580.772	270.12
580.982	234.12
581.193	250.12
581.403	254.12
581.614	249.12
581.825	261.12
582.035	235.12
582.246	249.12
582.456	240.12
582.667	242.12
582.877	243.12
583.087	255.12
583.298	247.12
583.508	236.12
583.719	245.12
583.929	261.12
584.139	235.12
584.35	247.12
584.56	237.12
584.77	261.12
584.981	265.12
585.191	246.12
585.401	235.12
585.611	243.12
585.821	256.12
586.032	240.12
586.242	236.12
586.452	245.12
586.662	247.12
586.872	246.12
587.082	241.12
587.292	245.12
587.502	227.12
587.713	239.12
587.923	234.12
588.133	239.12
588.343	238.12
588.553	231.12
588.762	249.12
588.972	231.12
589.182	257.12
589.392	232.12
589.602	240.12
589.812	230.12
590.022	240.12
590.232	256.12
590.441	248.12
590.651	239.12
590.861	245.12
591.071	245.12
591.281	234.12
591.49	253.12
591.7	253.12
591.91	247.12
592.119	257.12
592.329	248.12
592.539	276.12
592.748	277.12
592.958	271.12
593.167	281.12
593.377	279.12
593.587	272.12
593.796	281.12
594.006	275.12
594.215	285.12
594.424	282.12
594.634	289.12
594.843	271.12
595.053	261.12
595.262	259.12
595.472	264.12
595.681	245.12
595.89	258.12
596.1	240.12
596.309	244.12
596.518	251.12
596.727	229.12
596.937	235.12
597.146	246.12
597.355	224.12
597.564	247.12
597.774	231.12
597.983	225.12
598.192	249.12
598.401	212.12
598.61	232.12
598.819	224.12
599.028	223.12
599.237	229.12
599.446	219.12
599.655	216.12
599.864	231.12
600.073	218.12
600.282	236.12
600.491	202.12
600.7	222.12
600.909	212.12
601.118	224.12
601.327	223.12
601.536	196.12
601.745	208.12
601.953	223.12
602.162	223.12
602.371	216.12
602.58	210.12
602.789	219.12
602.997	215.12
603.206	210.12
603.415	211.12
603.623	202.12
603.832	215.12
604.041	212.12
604.249	211.12
604.458	220.12
604.666	212.12
604.875	224.12
605.084	212.12
605.292	222.12
605.501	210.12
605.709	208.12
605.918	205.12
606.126	189.12
606.334	203.12
606.543	216.12
606.751	208.12
606.96	226.12
607.168	207.12
607.376	195.12
607.585	204.12
607.793	200.12
608.001	219.12
608.21	231.12
608.418	206.12
608.626	215.12
608.834	212.12
609.043	211.12
609.251	201.12
609.459	198.12
609.667	223.12
609.875	208.12
610.083	199.12
610.291	196.12
610.499	209.12
610.707	227.12
610.916	216.12
611.124	209.12
611.332	215.12
611.54	222.12
611.748	215.12
611.955	208.12
612.163	212.12
612.371	205.12
612.579	202.12
612.787	214.12
612.995	211.12
613.203	207.12
613.411	197.12
613.618	192.12
613.826	201.12
614.034	205.12
614.242	195.12
614.449	208.12
614.657	206.12
614.865	210.12
615.072	208.12
615.28	198.12
615.488	201.12
615.695	183.12
615.903	221.12
616.111	216.12
616.318	209.12
616.526	214.12
616.733	206.12
616.941	205.12
617.148	204.12
617.356	197.12
617.563	205.12
617.771	206.12
617.978	204.12
618.185	214.12
618.393	194.12
618.6	209.12
618.807	199.12
619.015	213.12
619.222	189.12
619.429	206.12
619.637	209.12
619.844	200.12
620.051	192.12
620.258	203.12
620.466	204.12
620.673	204.12
620.88	186.12
621.087	187.12
621.294	191.12
621.501	199.12
621.708	196.12
621.915	193.12
622.122	203.12
622.329	197.12
622.536	199.12
622.743	195.12
622.95	199.12
623.157	197.12
623.364	186.12
623.571	189.12
623.778	192.12
623.985	192.12
624.192	174.12
624.399	210.12
624.606	196.12
624.812	196.12
625.019	191.12
625.226	199.12
625.433	179.12
625.639	194.12
625.846	198.12
626.053	180.12
626.259	171.12
626.466	187.12
626.673	174.12
626.879	168.12
627.086	183.12
627.293	184.12
627.499	182.12
627.706	182.12
627.912	177.12
628.119	173.12
628.325	184.12
628.532	181.12
628.738	179.12
628.945	184.12
629.151	181.12
629.357	190.12
629.564	195.12
629.77	186.12
629.976	169.12
630.183	198.12
630.389	168.12
630.595	190.12
630.802	185.12
631.008	193.12
631.214	169.12
631.42	166.12
631.627	173.12
631.833	170.12
632.039	183.12
632.245	177.12
632.451	161.12
632.657	176.12
632.863	168.12
633.069	161.12
633.275	170.12
633.481	181.12
633.688	153.12
633.893	185.12
634.099	165.12
634.305	176.12
634.511	154.12
634.717	162.12
634.923	153.12
635.129	172.12
635.335	166.12
635.541	152.12
635.747	166.12
635.952	174.12
636.158	153.12
636.364	169.12
636.57	175.12
636.775	167.12
636.981	158.12
637.187	162.12
637.392	160.12
637.598	165.12
637.804	159.12
638.009	161.12
638.215	157.12
638.421	141.12
638.626	149.12
638.832	161.12
639.037	138.12
639.243	139.12
639.448	147.12
639.654	165.12
639.859	162.12
640.065	169.12
640.27	154.12
640.475	151.12
640.681	153.12
640.886	161.12
641.091	150.12
641.297	161.12
641.502	151.12
641.707	164.12
641.913	167.12
642.118	139.12
642.323	146.12
642.528	157.12
642.733	152.12
642.939	155.12
643.144	163.12
643.349	158.12
643.554	158.12
643.759	153.12
643.964	133.12
644.169	155.12
644.374	141.12
644.579	151.12
644.784	155.12
644.989	167.12
645.194	146.12
645.399	151.12
645.604	142.12
645.809	158.12
646.014	147.12
646.219	147.12
646.423	152.12
646.628	157.12
646.833	153.12
647.038	148.12
647.243	153.12
647.447	154.12
647.652	139.12
647.857	155.12
648.062	168.12
648.266	149.12
648.471	154.12
648.676	157.12
648.88	146.12
649.085	159.12
649.289	155.12
649.494	153.12
649.698	183.12
649.903	173.12
650.107	140.12
650.312	159.12
650.516	156.12
650.721	149.12
650.925	141.12
651.13	134.12
651.334	151.12
651.539	152.12
651.743	143.12
651.947	129.12
652.152	137.12
652.356	141.12
652.56	134.12
652.764	129.12
652.969	140.12
653.173	131.12
653.377	127.12
653.581	134.12
653.785	139.12
653.99	150.12
654.194	128.12
654.398	129.12
654.602	130.12
654.806	116.12
655.01	129.12
655.214	127.12
655.418	126.12
655.622	137.12
655.826	135.12
656.03	143.12
656.234	124.12
656.438	135.12
656.642	135.12
656.846	128.12
657.049	111.12
657.253	116.12
657.457	122.12
657.661	120.12
657.865	115.12
658.068	104.12
658.272	106.12
658.476	117.12
658.68	99.12
658.883	113.12
659.087	120.12
659.291	109.12
659.494	82.12
659.698	99.12
659.901	105.12
660.105	91.12
660.309	98.12
660.512	102.12
660.716	91.12
660.919	100.12
661.123	103.12
661.326	94.12
661.53	91.12
661.733	88.12
661.936	95.12
662.14	95.12
662.343	86.12
662.546	100.12
662.75	75.12
662.953	98.12
663.156	99.12
663.36	87.12
663.563	87.12
663.766	76.12
663.969	87.12
664.173	81.12
664.376	80.12
664.579	83.12
664.782	75.12
664.985	83.12
665.188	95.12
665.391	77.12
665.594	92.12
665.797	76.12
666	85.12
666.203	71.12
666.406	83.12
666.609	79.12
666.812	85.12
667.015	92.12
667.218	80.12
667.421	70.12
667.624	70.12
667.827	81.12
668.03	88.12
668.232	80.12
668.435	81.12
668.638	92.12
668.841	87.12
669.043	79.12
669.246	90.12
669.449	102.12
669.651	97.12
669.854	77.12
670.057	82.12
670.259	81.12
670.462	95.12
670.665	92.12
670.867	103.12
671.07	87.12
671.272	76.12
671.475	103.12
671.677	87.12
671.88	99.12
672.082	77.12
672.284	89.12
672.487	85.12
672.689	86.12
672.892	91.12
