Data from 1969.PennyLincolnUp.Lamp.En5.5.200Scan.071719.P1._HRD10591_14-54-25-971.txt Node
Date: Thu Jul 18 14:54:25 EDT 2019
User: cochatt
Spectrometer: HR+D1059
Trigger mode: 1
Integration Time (sec): 1.000000E-1
Scans to average: 1
Electric dark correction enabled: true
Nonlinearity correction enabled: false
Boxcar width: 0
XAxis mode: Wavelengths
Number of Pixels in Spectrum: 2048
>>>>>Begin Spectral Data<<<<<
223.165	-10.44
223.4	-10.44
223.635	-10.44
223.869	-17.44
224.104	-12.44
224.338	-15.44
224.573	-7.44
224.808	-13.44
225.042	1.56
225.277	-8.44
225.511	-7.44
225.746	13.56
225.98	-13.44
226.215	2.56
226.449	16.56
226.683	21.56
226.918	22.56
227.152	27.56
227.387	32.56
227.621	42.56
227.856	41.56
228.09	41.56
228.324	44.56
228.559	46.56
228.793	58.56
229.027	78.56
229.262	90.56
229.496	94.56
229.73	95.56
229.964	115.56
230.199	102.56
230.433	104.56
230.667	95.56
230.901	104.56
231.136	84.56
231.37	86.56
231.604	97.56
231.838	94.56
232.072	87.56
232.306	90.56
232.541	110.56
232.775	100.56
233.009	91.56
233.243	116.56
233.477	106.56
233.711	104.56
233.945	99.56
234.179	104.56
234.413	103.56
234.647	109.56
234.881	108.56
235.115	104.56
235.349	111.56
235.583	117.56
235.817	112.56
236.051	106.56
236.285	115.56
236.519	114.56
236.753	99.56
236.987	133.56
237.221	144.56
237.455	150.56
237.689	142.56
237.922	103.56
238.156	124.56
238.39	116.56
238.624	121.56
238.858	102.56
239.091	109.56
239.325	119.56
239.559	111.56
239.793	111.56
240.027	127.56
240.26	106.56
240.494	116.56
240.728	115.56
240.961	108.56
241.195	138.56
241.429	131.56
241.662	117.56
241.896	118.56
242.13	115.56
242.363	118.56
242.597	102.56
242.83	118.56
243.064	125.56
243.298	125.56
243.531	123.56
243.765	123.56
243.998	134.56
244.232	116.56
244.465	122.56
244.699	125.56
244.932	126.56
245.166	132.56
245.399	121.56
245.633	123.56
245.866	121.56
246.099	125.56
246.333	116.56
246.566	132.56
246.8	117.56
247.033	123.56
247.266	138.56
247.5	148.56
247.733	147.56
247.966	150.56
248.2	138.56
248.433	144.56
248.666	153.56
248.899	143.56
249.133	166.56
249.366	150.56
249.599	166.56
249.832	142.56
250.066	151.56
250.299	148.56
250.532	175.56
250.765	171.56
250.998	187.56
251.231	179.56
251.465	172.56
251.698	162.56
251.931	162.56
252.164	182.56
252.397	155.56
252.63	157.56
252.863	143.56
253.096	168.56
253.329	162.56
253.562	167.56
253.795	174.56
254.028	157.56
254.261	171.56
254.494	178.56
254.727	195.56
254.96	212.56
255.193	202.56
255.426	197.56
255.659	182.56
255.892	165.56
256.124	174.56
256.357	194.56
256.59	166.56
256.823	182.56
257.056	187.56
257.289	165.56
257.521	166.56
257.754	187.56
257.987	166.56
258.22	175.56
258.452	180.56
258.685	172.56
258.918	161.56
259.151	176.56
259.383	164.56
259.616	169.56
259.849	177.56
260.081	188.56
260.314	173.56
260.547	192.56
260.779	180.56
261.012	186.56
261.244	191.56
261.477	171.56
261.71	175.56
261.942	191.56
262.175	178.56
262.407	175.56
262.64	169.56
262.872	171.56
263.105	174.56
263.337	172.56
263.57	172.56
263.802	182.56
264.035	185.56
264.267	175.56
264.499	183.56
264.732	195.56
264.964	160.56
265.197	174.56
265.429	183.56
265.661	178.56
265.894	182.56
266.126	199.56
266.358	173.56
266.591	182.56
266.823	187.56
267.055	184.56
267.287	205.56
267.52	174.56
267.752	195.56
267.984	204.56
268.216	161.56
268.448	168.56
268.681	193.56
268.913	191.56
269.145	214.56
269.377	212.56
269.609	202.56
269.841	206.56
270.073	211.56
270.306	223.56
270.538	239.56
270.77	241.56
271.002	240.56
271.234	222.56
271.466	239.56
271.698	234.56
271.93	249.56
272.162	253.56
272.394	237.56
272.626	219.56
272.858	209.56
273.09	220.56
273.322	222.56
273.553	218.56
273.785	229.56
274.017	214.56
274.249	235.56
274.481	211.56
274.713	206.56
274.945	213.56
275.176	233.56
275.408	221.56
275.64	220.56
275.872	208.56
276.104	227.56
276.335	208.56
276.567	212.56
276.799	216.56
277.031	242.56
277.262	259.56
277.494	247.56
277.726	230.56
277.957	221.56
278.189	223.56
278.421	214.56
278.652	217.56
278.884	213.56
279.115	224.56
279.347	230.56
279.579	219.56
279.81	228.56
280.042	218.56
280.273	219.56
280.505	222.56
280.736	232.56
280.968	215.56
281.199	225.56
281.431	241.56
281.662	229.56
281.894	220.56
282.125	231.56
282.356	260.56
282.588	238.56
282.819	237.56
283.051	239.56
283.282	237.56
283.513	225.56
283.745	228.56
283.976	233.56
284.207	223.56
284.439	242.56
284.67	232.56
284.901	239.56
285.132	234.56
285.364	230.56
285.595	217.56
285.826	225.56
286.057	243.56
286.288	223.56
286.52	230.56
286.751	230.56
286.982	244.56
287.213	230.56
287.444	242.56
287.675	233.56
287.906	242.56
288.138	244.56
288.369	261.56
288.6	250.56
288.831	265.56
289.062	266.56
289.293	250.56
289.524	227.56
289.755	258.56
289.986	242.56
290.217	246.56
290.448	254.56
290.679	253.56
290.91	257.56
291.141	259.56
291.371	258.56
291.602	248.56
291.833	268.56
292.064	257.56
292.295	265.56
292.526	262.56
292.757	257.56
292.987	264.56
293.218	265.56
293.449	243.56
293.68	244.56
293.91	240.56
294.141	261.56
294.372	264.56
294.603	251.56
294.833	252.56
295.064	239.56
295.295	246.56
295.525	258.56
295.756	262.56
295.987	252.56
296.217	276.56
296.448	262.56
296.679	280.56
296.909	260.56
297.14	258.56
297.37	261.56
297.601	253.56
297.831	272.56
298.062	261.56
298.292	263.56
298.523	262.56
298.753	252.56
298.984	264.56
299.214	268.56
299.445	257.56
299.675	268.56
299.905	274.56
300.136	259.56
300.366	285.56
300.597	278.56
300.827	293.56
301.057	286.56
301.288	290.56
301.518	264.56
301.748	277.56
301.979	294.56
302.209	290.56
302.439	298.56
302.669	273.56
302.9	259.56
303.13	284.56
303.36	273.56
303.59	294.56
303.82	287.56
304.051	285.56
304.281	280.56
304.511	262.56
304.741	280.56
304.971	276.56
305.201	270.56
305.431	260.56
305.661	274.56
305.891	278.56
306.121	281.56
306.352	285.56
306.582	298.56
306.812	278.56
307.042	267.56
307.272	286.56
307.502	278.56
307.731	274.56
307.961	283.56
308.191	296.56
308.421	277.56
308.651	270.56
308.881	283.56
309.111	302.56
309.341	275.56
309.571	280.56
309.8	304.56
310.03	303.56
310.26	292.56
310.49	298.56
310.72	290.56
310.949	298.56
311.179	302.56
311.409	300.56
311.639	292.56
311.868	306.56
312.098	307.56
312.328	316.56
312.557	295.56
312.787	295.56
313.017	304.56
313.246	298.56
313.476	286.56
313.706	310.56
313.935	326.56
314.165	300.56
314.394	320.56
314.624	298.56
314.853	315.56
315.083	315.56
315.312	326.56
315.542	284.56
315.771	301.56
316.001	311.56
316.23	299.56
316.46	291.56
316.689	316.56
316.919	308.56
317.148	306.56
317.377	325.56
317.607	310.56
317.836	311.56
318.065	310.56
318.295	319.56
318.524	310.56
318.753	317.56
318.983	311.56
319.212	314.56
319.441	302.56
319.67	308.56
319.9	310.56
320.129	314.56
320.358	294.56
320.587	310.56
320.816	300.56
321.046	304.56
321.275	325.56
321.504	324.56
321.733	319.56
321.962	324.56
322.191	327.56
322.42	311.56
322.649	339.56
322.878	327.56
323.108	346.56
323.337	338.56
323.566	349.56
323.795	350.56
324.024	374.56
324.253	410.56
324.482	543.56
324.71	771.56
324.939	1007.56
325.168	832.56
325.397	508.56
325.626	392.56
325.855	364.56
326.084	329.56
326.313	347.56
326.542	358.56
326.77	382.56
326.999	412.56
327.228	532.56
327.457	731.56
327.686	771.56
327.914	553.56
328.143	430.56
328.372	396.56
328.6	403.56
328.829	368.56
329.058	385.56
329.287	392.56
329.515	390.56
329.744	357.56
329.972	380.56
330.201	390.56
330.43	384.56
330.658	397.56
330.887	405.56
331.115	392.56
331.344	374.56
331.572	390.56
331.801	367.56
332.03	372.56
332.258	372.56
332.486	358.56
332.715	366.56
332.943	367.56
333.172	399.56
333.4	409.56
333.629	399.56
333.857	413.56
334.085	424.56
334.314	425.56
334.542	436.56
334.771	444.56
334.999	399.56
335.227	379.56
335.455	376.56
335.684	383.56
335.912	364.56
336.14	380.56
336.369	353.56
336.597	380.56
336.825	374.56
337.053	344.56
337.281	368.56
337.51	354.56
337.738	351.56
337.966	359.56
338.194	345.56
338.422	346.56
338.65	336.56
338.878	335.56
339.106	346.56
339.334	338.56
339.562	345.56
339.79	345.56
340.018	347.56
340.246	339.56
340.474	333.56
340.702	343.56
340.93	327.56
341.158	339.56
341.386	352.56
341.614	331.56
341.842	343.56
342.07	347.56
342.298	358.56
342.526	344.56
342.754	344.56
342.981	336.56
343.209	341.56
343.437	348.56
343.665	352.56
343.893	382.56
344.12	382.56
344.348	366.56
344.576	364.56
344.804	365.56
345.031	348.56
345.259	338.56
345.487	344.56
345.714	338.56
345.942	336.56
346.17	335.56
346.397	327.56
346.625	310.56
346.853	318.56
347.08	320.56
347.308	310.56
347.535	320.56
347.763	350.56
347.99	317.56
348.218	332.56
348.445	336.56
348.673	331.56
348.9	320.56
349.128	317.56
349.355	314.56
349.583	317.56
349.81	304.56
350.037	327.56
350.265	311.56
350.492	319.56
350.72	311.56
350.947	334.56
351.174	335.56
351.402	325.56
351.629	328.56
351.856	329.56
352.083	333.56
352.311	323.56
352.538	324.56
352.765	328.56
352.992	324.56
353.22	330.56
353.447	333.56
353.674	319.56
353.901	315.56
354.128	318.56
354.355	327.56
354.583	300.56
354.81	323.56
355.037	331.56
355.264	312.56
355.491	318.56
355.718	307.56
355.945	318.56
356.172	333.56
356.399	308.56
356.626	316.56
356.853	311.56
357.08	300.56
357.307	308.56
357.534	310.56
357.761	301.56
357.988	291.56
358.215	309.56
358.441	301.56
358.668	312.56
358.895	304.56
359.122	320.56
359.349	301.56
359.576	318.56
359.802	338.56
360.029	354.56
360.256	342.56
360.483	327.56
360.709	316.56
360.936	331.56
361.163	333.56
361.39	322.56
361.616	319.56
361.843	306.56
362.07	327.56
362.296	311.56
362.523	318.56
362.749	303.56
362.976	315.56
363.203	334.56
363.429	320.56
363.656	327.56
363.882	319.56
364.109	307.56
364.335	324.56
364.562	318.56
364.788	314.56
365.015	316.56
365.241	319.56
365.468	314.56
365.694	318.56
365.92	313.56
366.147	329.56
366.373	315.56
366.599	306.56
366.826	318.56
367.052	319.56
367.278	326.56
367.505	315.56
367.731	322.56
367.957	306.56
368.184	319.56
368.41	300.56
368.636	309.56
368.862	312.56
369.089	327.56
369.315	342.56
369.541	313.56
369.767	338.56
369.993	316.56
370.219	318.56
370.445	315.56
370.672	324.56
370.898	324.56
371.124	325.56
371.35	311.56
371.576	317.56
371.802	317.56
372.028	331.56
372.254	323.56
372.48	326.56
372.706	332.56
372.932	332.56
373.158	326.56
373.384	343.56
373.61	320.56
373.835	320.56
374.061	319.56
374.287	324.56
374.513	328.56
374.739	326.56
374.965	324.56
375.191	340.56
375.416	352.56
375.642	334.56
375.868	320.56
376.094	326.56
376.319	317.56
376.545	314.56
376.771	316.56
376.997	326.56
377.222	317.56
377.448	330.56
377.674	327.56
377.899	310.56
378.125	327.56
378.35	337.56
378.576	311.56
378.802	325.56
379.027	299.56
379.253	313.56
379.478	316.56
379.704	323.56
379.929	318.56
380.155	334.56
380.38	321.56
380.606	317.56
380.831	324.56
381.057	318.56
381.282	333.56
381.507	319.56
381.733	328.56
381.958	312.56
382.184	321.56
382.409	304.56
382.634	323.56
382.86	339.56
383.085	332.56
383.31	342.56
383.535	357.56
383.761	343.56
383.986	346.56
384.211	364.56
384.436	374.56
384.662	351.56
384.887	356.56
385.112	364.56
385.337	360.56
385.562	350.56
385.787	350.56
386.013	377.56
386.238	361.56
386.463	379.56
386.688	379.56
386.913	354.56
387.138	360.56
387.363	356.56
387.588	358.56
387.813	344.56
388.038	359.56
388.263	365.56
388.488	358.56
388.713	368.56
388.938	379.56
389.163	368.56
389.387	355.56
389.612	349.56
389.837	361.56
390.062	359.56
390.287	364.56
390.512	357.56
390.736	342.56
390.961	347.56
391.186	341.56
391.411	357.56
391.636	374.56
391.86	397.56
392.085	359.56
392.31	377.56
392.534	378.56
392.759	375.56
392.984	376.56
393.208	361.56
393.433	347.56
393.658	354.56
393.882	368.56
394.107	361.56
394.331	344.56
394.556	364.56
394.78	381.56
395.005	371.56
395.229	378.56
395.454	404.56
395.678	380.56
395.903	374.56
396.127	374.56
396.352	385.56
396.576	368.56
396.801	386.56
397.025	382.56
397.249	374.56
397.474	390.56
397.698	377.56
397.922	377.56
398.147	398.56
398.371	408.56
398.595	398.56
398.82	415.56
399.044	442.56
399.268	464.56
399.492	503.56
399.717	562.56
399.941	532.56
400.165	527.56
400.389	497.56
400.613	464.56
400.837	456.56
401.062	426.56
401.286	413.56
401.51	417.56
401.734	407.56
401.958	419.56
402.182	416.56
402.406	418.56
402.63	444.56
402.854	439.56
403.078	436.56
403.302	428.56
403.526	440.56
403.75	446.56
403.974	436.56
404.198	430.56
404.422	454.56
404.645	453.56
404.869	464.56
405.093	474.56
405.317	496.56
405.541	501.56
405.765	471.56
405.988	463.56
406.212	473.56
406.436	458.56
406.66	473.56
406.883	451.56
407.107	505.56
407.331	532.56
407.555	537.56
407.778	558.56
408.002	516.56
408.226	476.56
408.449	490.56
408.673	472.56
408.896	475.56
409.12	502.56
409.344	495.56
409.567	442.56
409.791	449.56
410.014	448.56
410.238	432.56
410.461	421.56
410.685	435.56
410.908	448.56
411.132	457.56
411.355	475.56
411.578	450.56
411.802	435.56
412.025	428.56
412.249	456.56
412.472	456.56
412.695	467.56
412.919	442.56
413.142	435.56
413.365	447.56
413.589	408.56
413.812	417.56
414.035	422.56
414.258	424.56
414.482	434.56
414.705	442.56
414.928	445.56
415.151	425.56
415.374	411.56
415.597	413.56
415.821	426.56
416.044	413.56
416.267	401.56
416.49	423.56
416.713	390.56
416.936	390.56
417.159	403.56
417.382	410.56
417.605	415.56
417.828	423.56
418.051	420.56
418.274	410.56
418.497	404.56
418.72	412.56
418.943	405.56
419.166	420.56
419.389	443.56
419.611	428.56
419.834	429.56
420.057	444.56
420.28	431.56
420.503	433.56
420.726	430.56
420.948	440.56
421.171	445.56
421.394	452.56
421.617	424.56
421.839	412.56
422.062	406.56
422.285	409.56
422.507	452.56
422.73	467.56
422.953	471.56
423.175	459.56
423.398	437.56
423.621	445.56
423.843	474.56
424.066	463.56
424.288	446.56
424.511	456.56
424.733	482.56
424.956	522.56
425.178	502.56
425.401	480.56
425.623	490.56
425.846	455.56
426.068	446.56
426.291	436.56
426.513	404.56
426.735	424.56
426.958	454.56
427.18	472.56
427.402	512.56
427.625	550.56
427.847	500.56
428.069	450.56
428.292	437.56
428.514	402.56
428.736	386.56
428.958	407.56
429.181	383.56
429.403	395.56
429.625	371.56
429.847	418.56
430.069	444.56
430.292	431.56
430.514	415.56
430.736	395.56
430.958	394.56
431.18	392.56
431.402	393.56
431.624	377.56
431.846	381.56
432.068	377.56
432.29	373.56
432.512	385.56
432.734	394.56
432.956	391.56
433.178	399.56
433.4	398.56
433.622	399.56
433.844	384.56
434.066	382.56
434.287	403.56
434.509	387.56
434.731	403.56
434.953	423.56
435.175	429.56
435.397	439.56
435.618	421.56
435.84	416.56
436.062	478.56
436.284	502.56
436.505	451.56
436.727	415.56
436.949	426.56
437.17	401.56
437.392	404.56
437.614	370.56
437.835	398.56
438.057	470.56
438.278	469.56
438.5	502.56
438.721	527.56
438.943	514.56
439.165	443.56
439.386	414.56
439.608	438.56
439.829	416.56
440.05	421.56
440.272	441.56
440.493	448.56
440.715	404.56
440.936	406.56
441.158	403.56
441.379	416.56
441.6	423.56
441.822	446.56
442.043	448.56
442.264	491.56
442.486	496.56
442.707	447.56
442.928	439.56
443.149	419.56
443.371	456.56
443.592	474.56
443.813	513.56
444.034	550.56
444.255	495.56
444.476	484.56
444.698	486.56
444.919	468.56
445.14	542.56
445.361	490.56
445.582	459.56
445.803	489.56
446.024	518.56
446.245	549.56
446.466	481.56
446.687	415.56
446.908	408.56
447.129	391.56
447.35	410.56
447.571	398.56
447.792	394.56
448.013	391.56
448.234	399.56
448.455	413.56
448.675	483.56
448.896	526.56
449.117	468.56
449.338	454.56
449.559	495.56
449.779	546.56
450	446.56
450.221	370.56
450.442	392.56
450.662	388.56
450.883	360.56
451.104	406.56
451.324	390.56
451.545	378.56
451.766	368.56
451.986	354.56
452.207	355.56
452.428	340.56
452.648	352.56
452.869	362.56
453.089	372.56
453.31	370.56
453.53	341.56
453.751	367.56
453.971	341.56
454.192	359.56
454.412	354.56
454.633	364.56
454.853	344.56
455.073	343.56
455.294	349.56
455.514	398.56
455.734	382.56
455.955	344.56
456.175	348.56
456.395	330.56
456.616	338.56
456.836	343.56
457.056	352.56
457.276	347.56
457.497	348.56
457.717	337.56
457.937	342.56
458.157	352.56
458.377	356.56
458.598	352.56
458.818	394.56
459.038	429.56
459.258	436.56
459.478	412.56
459.698	405.56
459.918	386.56
460.138	380.56
460.358	412.56
460.578	399.56
460.798	422.56
461.018	405.56
461.238	415.56
461.458	436.56
461.678	413.56
461.898	398.56
462.118	436.56
462.338	428.56
462.558	451.56
462.777	456.56
462.997	480.56
463.217	482.56
463.437	498.56
463.657	455.56
463.876	452.56
464.096	469.56
464.316	448.56
464.536	465.56
464.755	444.56
464.975	464.56
465.195	444.56
465.414	444.56
465.634	419.56
465.854	404.56
466.073	381.56
466.293	396.56
466.512	377.56
466.732	367.56
466.951	372.56
467.171	359.56
467.391	388.56
467.61	398.56
467.829	377.56
468.049	365.56
468.268	359.56
468.488	364.56
468.707	358.56
468.927	360.56
469.146	374.56
469.365	384.56
469.585	360.56
469.804	372.56
470.023	362.56
470.243	388.56
470.462	394.56
470.681	394.56
470.901	394.56
471.12	379.56
471.339	363.56
471.558	362.56
471.777	389.56
471.997	386.56
472.216	363.56
472.435	382.56
472.654	380.56
472.873	355.56
473.092	361.56
473.311	343.56
473.53	355.56
473.749	382.56
473.968	378.56
474.187	440.56
474.406	425.56
474.625	388.56
474.844	395.56
475.063	364.56
475.282	370.56
475.501	380.56
475.72	377.56
475.939	347.56
476.158	354.56
476.377	364.56
476.596	390.56
476.814	390.56
477.033	399.56
477.252	392.56
477.471	401.56
477.69	400.56
477.908	415.56
478.127	414.56
478.346	409.56
478.564	422.56
478.783	422.56
479.002	426.56
479.22	443.56
479.439	435.56
479.658	454.56
479.876	450.56
480.095	458.56
480.313	464.56
480.532	450.56
480.751	487.56
480.969	467.56
481.188	476.56
481.406	491.56
481.624	452.56
481.843	438.56
482.061	422.56
482.28	423.56
482.498	416.56
482.717	413.56
482.935	423.56
483.153	415.56
483.372	413.56
483.59	424.56
483.808	422.56
484.027	435.56
484.245	410.56
484.463	440.56
484.681	439.56
484.9	456.56
485.118	436.56
485.336	412.56
485.554	441.56
485.772	438.56
485.99	426.56
486.209	438.56
486.427	438.56
486.645	453.56
486.863	443.56
487.081	439.56
487.299	443.56
487.517	439.56
487.735	460.56
487.953	454.56
488.171	453.56
488.389	461.56
488.607	448.56
488.825	446.56
489.043	465.56
489.261	446.56
489.479	455.56
489.696	460.56
489.914	462.56
490.132	491.56
490.35	456.56
490.568	459.56
490.786	479.56
491.003	493.56
491.221	492.56
491.439	502.56
491.657	489.56
491.874	508.56
492.092	514.56
492.31	533.56
492.527	519.56
492.745	513.56
492.963	505.56
493.18	510.56
493.398	519.56
493.615	509.56
493.833	498.56
494.05	536.56
494.268	532.56
494.485	554.56
494.703	526.56
494.92	518.56
495.138	534.56
495.355	547.56
495.573	516.56
495.79	527.56
496.008	522.56
496.225	530.56
496.442	555.56
496.66	532.56
496.877	526.56
497.094	524.56
497.312	536.56
497.529	566.56
497.746	581.56
497.963	579.56
498.181	585.56
498.398	606.56
498.615	603.56
498.832	623.56
499.049	646.56
499.267	688.56
499.484	727.56
499.701	759.56
499.918	798.56
500.135	859.56
500.352	927.56
500.569	943.56
500.786	952.56
501.003	923.56
501.22	857.56
501.437	811.56
501.654	758.56
501.871	726.56
502.088	692.56
502.305	642.56
502.522	638.56
502.739	630.56
502.956	603.56
503.172	591.56
503.389	587.56
503.606	559.56
503.823	554.56
504.04	552.56
504.256	528.56
504.473	537.56
504.69	539.56
504.907	563.56
505.123	519.56
505.34	518.56
505.557	490.56
505.773	494.56
505.99	492.56
506.207	494.56
506.423	487.56
506.64	487.56
506.856	472.56
507.073	486.56
507.289	455.56
507.506	478.56
507.722	476.56
507.939	463.56
508.155	478.56
508.372	464.56
508.588	476.56
508.805	456.56
509.021	453.56
509.238	451.56
509.454	469.56
509.67	463.56
509.887	440.56
510.103	435.56
510.319	451.56
510.536	495.56
510.752	682.56
510.968	572.56
511.184	462.56
511.401	440.56
511.617	436.56
511.833	431.56
512.049	428.56
512.265	433.56
512.481	427.56
512.698	448.56
512.914	410.56
513.13	430.56
513.346	415.56
513.562	423.56
513.778	432.56
513.994	421.56
514.21	434.56
514.426	451.56
514.642	447.56
514.858	458.56
515.074	488.56
515.29	530.56
515.506	687.56
515.721	606.56
515.937	502.56
516.153	494.56
516.369	471.56
516.585	470.56
516.801	462.56
517.016	475.56
517.232	478.56
517.448	490.56
517.664	486.56
517.879	508.56
518.095	514.56
518.311	510.56
518.527	481.56
518.742	487.56
518.958	466.56
519.173	468.56
519.389	449.56
519.605	428.56
519.82	446.56
520.036	434.56
520.251	427.56
520.467	464.56
520.682	452.56
520.898	437.56
521.113	429.56
521.329	449.56
521.544	495.56
521.76	565.56
521.975	846.56
522.19	812.56
522.406	539.56
522.621	422.56
522.836	420.56
523.052	397.56
523.267	387.56
523.482	390.56
523.698	406.56
523.913	398.56
524.128	384.56
524.343	384.56
524.559	375.56
524.774	385.56
524.989	395.56
525.204	376.56
525.419	396.56
525.634	383.56
525.849	368.56
526.064	362.56
526.28	373.56
526.495	378.56
526.71	375.56
526.925	372.56
527.14	350.56
527.355	352.56
527.57	341.56
527.785	360.56
527.999	383.56
528.214	370.56
528.429	375.56
528.644	354.56
528.859	357.56
529.074	377.56
529.289	388.56
529.503	394.56
529.718	377.56
529.933	400.56
530.148	370.56
530.363	366.56
530.577	364.56
530.792	367.56
531.007	381.56
531.221	367.56
531.436	350.56
531.651	355.56
531.865	358.56
532.08	354.56
532.295	363.56
532.509	390.56
532.724	360.56
532.938	356.56
533.153	369.56
533.367	355.56
533.582	367.56
533.796	339.56
534.011	363.56
534.225	365.56
534.44	365.56
534.654	347.56
534.868	354.56
535.083	335.56
535.297	363.56
535.511	351.56
535.726	366.56
535.94	346.56
536.154	339.56
536.369	340.56
536.583	340.56
536.797	332.56
537.011	339.56
537.225	326.56
537.44	339.56
537.654	337.56
537.868	338.56
538.082	344.56
538.296	367.56
538.51	340.56
538.724	341.56
538.938	357.56
539.153	339.56
539.367	339.56
539.581	325.56
539.795	340.56
540.009	326.56
540.222	342.56
540.436	346.56
540.65	344.56
540.864	339.56
541.078	343.56
541.292	357.56
541.506	348.56
541.72	340.56
541.934	358.56
542.147	357.56
542.361	359.56
542.575	341.56
542.789	342.56
543.002	354.56
543.216	352.56
543.43	348.56
543.644	347.56
543.857	329.56
544.071	334.56
544.285	349.56
544.498	350.56
544.712	346.56
544.925	370.56
545.139	361.56
545.352	363.56
545.566	358.56
545.779	352.56
545.993	348.56
546.206	337.56
546.42	351.56
546.633	369.56
546.847	365.56
547.06	349.56
547.274	333.56
547.487	344.56
547.7	355.56
547.914	354.56
548.127	343.56
548.34	331.56
548.554	356.56
548.767	347.56
548.98	366.56
549.193	350.56
549.407	362.56
549.62	351.56
549.833	344.56
550.046	361.56
550.259	328.56
550.473	354.56
550.686	342.56
550.899	340.56
551.112	362.56
551.325	348.56
551.538	321.56
551.751	332.56
551.964	347.56
552.177	340.56
552.39	343.56
552.603	357.56
552.816	346.56
553.029	351.56
553.242	365.56
553.455	368.56
553.667	384.56
553.88	352.56
554.093	363.56
554.306	352.56
554.519	350.56
554.732	344.56
554.944	343.56
555.157	358.56
555.37	320.56
555.583	323.56
555.795	333.56
556.008	304.56
556.221	344.56
556.433	327.56
556.646	310.56
556.859	318.56
557.071	315.56
557.284	306.56
557.496	314.56
557.709	298.56
557.921	291.56
558.134	304.56
558.346	293.56
558.559	294.56
558.771	287.56
558.984	293.56
559.196	295.56
559.409	295.56
559.621	290.56
559.833	283.56
560.046	283.56
560.258	300.56
560.47	298.56
560.683	325.56
560.895	300.56
561.107	306.56
561.32	321.56
561.532	308.56
561.744	301.56
561.956	303.56
562.168	309.56
562.381	298.56
562.593	300.56
562.805	307.56
563.017	314.56
563.229	285.56
563.441	288.56
563.653	313.56
563.865	318.56
564.077	310.56
564.289	313.56
564.501	308.56
564.713	326.56
564.925	317.56
565.137	328.56
565.349	332.56
565.561	329.56
565.773	338.56
565.985	366.56
566.197	381.56
566.408	399.56
566.62	399.56
566.832	420.56
567.044	416.56
567.255	414.56
567.467	445.56
567.679	445.56
567.891	466.56
568.102	475.56
568.314	452.56
568.526	434.56
568.737	394.56
568.949	373.56
569.161	327.56
569.372	337.56
569.584	317.56
569.795	320.56
570.007	327.56
570.218	343.56
570.43	330.56
570.641	310.56
570.853	319.56
571.064	311.56
571.276	299.56
571.487	307.56
571.698	276.56
571.91	300.56
572.121	263.56
572.333	275.56
572.544	295.56
572.755	282.56
572.966	249.56
573.178	268.56
573.389	266.56
573.6	268.56
573.811	269.56
574.023	251.56
574.234	251.56
574.445	256.56
574.656	263.56
574.867	261.56
575.078	267.56
575.289	260.56
575.501	269.56
575.712	288.56
575.923	264.56
576.134	260.56
576.345	282.56
576.556	272.56
576.767	258.56
576.978	265.56
577.188	255.56
577.399	262.56
577.61	250.56
577.821	229.56
578.032	233.56
578.243	256.56
578.454	364.56
578.665	286.56
578.875	243.56
579.086	246.56
579.297	257.56
579.508	255.56
579.718	246.56
579.929	267.56
580.14	237.56
580.35	262.56
580.561	239.56
580.772	244.56
580.982	221.56
581.193	231.56
581.403	223.56
581.614	245.56
581.825	233.56
582.035	242.56
582.246	234.56
582.456	238.56
582.667	231.56
582.877	253.56
583.087	231.56
583.298	258.56
583.508	240.56
583.719	227.56
583.929	232.56
584.139	233.56
584.35	231.56
584.56	246.56
584.77	247.56
584.981	250.56
585.191	244.56
585.401	264.56
585.611	248.56
585.821	244.56
586.032	223.56
586.242	226.56
586.452	230.56
586.662	254.56
586.872	233.56
587.082	236.56
587.292	224.56
587.502	228.56
587.713	239.56
587.923	249.56
588.133	240.56
588.343	247.56
588.553	238.56
588.762	238.56
588.972	227.56
589.182	236.56
589.392	231.56
589.602	220.56
589.812	233.56
590.022	224.56
590.232	234.56
590.441	234.56
590.651	243.56
590.861	245.56
591.071	248.56
591.281	239.56
591.49	226.56
591.7	250.56
591.91	248.56
592.119	246.56
592.329	250.56
592.539	256.56
592.748	270.56
592.958	272.56
593.167	266.56
593.377	276.56
593.587	285.56
593.796	268.56
594.006	269.56
594.215	266.56
594.424	295.56
594.634	280.56
594.843	247.56
595.053	261.56
595.262	258.56
595.472	257.56
595.681	236.56
595.89	235.56
596.1	243.56
596.309	250.56
596.518	225.56
596.727	231.56
596.937	231.56
597.146	234.56
597.355	220.56
597.564	232.56
597.774	232.56
597.983	216.56
598.192	210.56
598.401	198.56
598.61	212.56
598.819	202.56
599.028	214.56
599.237	213.56
599.446	219.56
599.655	207.56
599.864	210.56
600.073	218.56
600.282	217.56
600.491	206.56
600.7	192.56
600.909	213.56
601.118	199.56
601.327	215.56
601.536	211.56
601.745	211.56
601.953	210.56
602.162	217.56
602.371	205.56
602.58	198.56
602.789	216.56
602.997	211.56
603.206	212.56
603.415	216.56
603.623	212.56
603.832	204.56
604.041	203.56
604.249	215.56
604.458	180.56
604.666	213.56
604.875	194.56
605.084	189.56
605.292	191.56
605.501	207.56
605.709	206.56
605.918	216.56
606.126	209.56
606.334	195.56
606.543	200.56
606.751	198.56
606.96	215.56
607.168	189.56
607.376	195.56
607.585	218.56
607.793	197.56
608.001	183.56
608.21	211.56
608.418	214.56
608.626	200.56
608.834	193.56
609.043	198.56
609.251	196.56
609.459	181.56
609.667	202.56
609.875	201.56
610.083	195.56
610.291	187.56
610.499	187.56
610.707	196.56
610.916	215.56
611.124	220.56
611.332	222.56
611.54	214.56
611.748	221.56
611.955	215.56
612.163	200.56
612.371	191.56
612.579	191.56
612.787	198.56
612.995	201.56
613.203	206.56
613.411	205.56
613.618	213.56
613.826	215.56
614.034	201.56
614.242	186.56
614.449	199.56
614.657	198.56
614.865	227.56
615.072	186.56
615.28	201.56
615.488	191.56
615.695	184.56
615.903	180.56
616.111	197.56
616.318	218.56
616.526	199.56
616.733	200.56
616.941	187.56
617.148	199.56
617.356	193.56
617.563	213.56
617.771	190.56
617.978	186.56
618.185	205.56
618.393	196.56
618.6	196.56
618.807	196.56
619.015	193.56
619.222	198.56
619.429	187.56
619.637	183.56
619.844	193.56
620.051	194.56
620.258	188.56
620.466	178.56
620.673	195.56
620.88	198.56
621.087	183.56
621.294	172.56
621.501	190.56
621.708	202.56
621.915	203.56
622.122	191.56
622.329	188.56
622.536	191.56
622.743	198.56
622.95	172.56
623.157	202.56
623.364	182.56
623.571	190.56
623.778	183.56
623.985	183.56
624.192	179.56
624.399	187.56
624.606	179.56
624.812	166.56
625.019	174.56
625.226	189.56
625.433	188.56
625.639	174.56
625.846	169.56
626.053	182.56
626.259	172.56
626.466	169.56
626.673	175.56
626.879	175.56
627.086	182.56
627.293	176.56
627.499	164.56
627.706	156.56
627.912	169.56
628.119	175.56
628.325	176.56
628.532	186.56
628.738	175.56
628.945	168.56
629.151	180.56
629.357	166.56
629.564	156.56
629.77	186.56
629.976	182.56
630.183	183.56
630.389	180.56
630.595	165.56
630.802	162.56
631.008	175.56
631.214	186.56
631.42	181.56
631.627	186.56
631.833	158.56
632.039	166.56
632.245	150.56
632.451	179.56
632.657	175.56
632.863	154.56
633.069	164.56
633.275	158.56
633.481	148.56
633.688	169.56
633.893	169.56
634.099	172.56
634.305	165.56
634.511	159.56
634.717	173.56
634.923	144.56
635.129	144.56
635.335	167.56
635.541	154.56
635.747	162.56
635.952	158.56
636.158	163.56
636.364	151.56
636.57	168.56
636.775	166.56
636.981	153.56
637.187	163.56
637.392	161.56
637.598	138.56
637.804	159.56
638.009	156.56
638.215	143.56
638.421	154.56
638.626	151.56
638.832	140.56
639.037	153.56
639.243	168.56
639.448	164.56
639.654	160.56
639.859	134.56
640.065	159.56
640.27	158.56
640.475	146.56
640.681	168.56
640.886	153.56
641.091	166.56
641.297	144.56
641.502	148.56
641.707	148.56
641.913	157.56
642.118	160.56
642.323	154.56
642.528	165.56
642.733	159.56
642.939	164.56
643.144	146.56
643.349	151.56
643.554	152.56
643.759	165.56
643.964	157.56
644.169	156.56
644.374	150.56
644.579	148.56
644.784	143.56
644.989	148.56
645.194	155.56
645.399	154.56
645.604	153.56
645.809	134.56
646.014	151.56
646.219	137.56
646.423	151.56
646.628	159.56
646.833	162.56
647.038	159.56
647.243	159.56
647.447	159.56
647.652	143.56
647.857	146.56
648.062	159.56
648.266	166.56
648.471	144.56
648.676	154.56
648.88	167.56
649.085	151.56
649.289	152.56
649.494	151.56
649.698	163.56
649.903	166.56
650.107	151.56
650.312	143.56
650.516	132.56
650.721	135.56
650.925	145.56
651.13	137.56
651.334	139.56
651.539	153.56
651.743	142.56
651.947	150.56
652.152	145.56
652.356	138.56
652.56	132.56
652.764	149.56
652.969	126.56
653.173	136.56
653.377	126.56
653.581	138.56
653.785	119.56
653.99	127.56
654.194	123.56
654.398	120.56
654.602	135.56
654.806	137.56
655.01	126.56
655.214	125.56
655.418	140.56
655.622	126.56
655.826	131.56
656.03	135.56
656.234	122.56
656.438	137.56
656.642	157.56
656.846	132.56
657.049	130.56
657.253	117.56
657.457	126.56
657.661	108.56
657.865	119.56
658.068	99.56
658.272	118.56
658.476	117.56
658.68	107.56
658.883	98.56
659.087	114.56
659.291	95.56
659.494	90.56
659.698	96.56
659.901	98.56
660.105	90.56
660.309	95.56
660.512	88.56
660.716	101.56
660.919	102.56
661.123	79.56
661.326	91.56
661.53	101.56
661.733	94.56
661.936	97.56
662.14	95.56
662.343	76.56
662.546	86.56
662.75	79.56
662.953	70.56
663.156	102.56
663.36	83.56
663.563	84.56
663.766	91.56
663.969	81.56
664.173	86.56
664.376	73.56
664.579	83.56
664.782	80.56
664.985	71.56
665.188	82.56
665.391	86.56
665.594	82.56
665.797	83.56
666	90.56
666.203	77.56
666.406	97.56
666.609	90.56
666.812	84.56
667.015	71.56
667.218	83.56
667.421	102.56
667.624	83.56
667.827	104.56
668.03	79.56
668.232	77.56
668.435	75.56
668.638	96.56
668.841	104.56
669.043	102.56
669.246	84.56
669.449	84.56
669.651	86.56
669.854	88.56
670.057	87.56
670.259	77.56
670.462	59.56
670.665	87.56
670.867	95.56
671.07	79.56
671.272	88.56
671.475	78.56
671.677	78.56
671.88	77.56
672.082	82.56
672.284	95.56
672.487	95.56
672.689	82.56
672.892	85.56
