Data from 1969.PennyLincolnUp.Lamp.En5.5.200Scan.071719.P1._HRD10591_14-56-17-972.txt Node
Date: Thu Jul 18 14:56:17 EDT 2019
User: cochatt
Spectrometer: HR+D1059
Trigger mode: 1
Integration Time (sec): 1.000000E-1
Scans to average: 1
Electric dark correction enabled: true
Nonlinearity correction enabled: false
Boxcar width: 0
XAxis mode: Wavelengths
Number of Pixels in Spectrum: 2048
>>>>>Begin Spectral Data<<<<<
223.165	-14.06
223.4	-14.06
223.635	-14.06
223.869	-24.06
224.104	-19.06
224.338	-16.06
224.573	-12.06
224.808	-12.06
225.042	-4.06
225.277	-5.06
225.511	-10.06
225.746	2.94
225.98	2.94
226.215	-5.06
226.449	16.94
226.683	28.94
226.918	32.94
227.152	36.94
227.387	36.94
227.621	28.94
227.856	46.94
228.09	33.94
228.324	55.94
228.559	57.94
228.793	71.94
229.027	72.94
229.262	102.94
229.496	86.94
229.73	112.94
229.964	123.94
230.199	108.94
230.433	94.94
230.667	103.94
230.901	98.94
231.136	112.94
231.37	96.94
231.604	88.94
231.838	105.94
232.072	110.94
232.306	108.94
232.541	115.94
232.775	107.94
233.009	88.94
233.243	106.94
233.477	98.94
233.711	115.94
233.945	94.94
234.179	99.94
234.413	109.94
234.647	95.94
234.881	108.94
235.115	108.94
235.349	103.94
235.583	115.94
235.817	105.94
236.051	108.94
236.285	100.94
236.519	107.94
236.753	113.94
236.987	123.94
237.221	127.94
237.455	164.94
237.689	135.94
237.922	109.94
238.156	113.94
238.39	106.94
238.624	111.94
238.858	108.94
239.091	127.94
239.325	98.94
239.559	107.94
239.793	118.94
240.027	116.94
240.26	141.94
240.494	141.94
240.728	136.94
240.961	116.94
241.195	120.94
241.429	121.94
241.662	115.94
241.896	104.94
242.13	114.94
242.363	111.94
242.597	120.94
242.83	115.94
243.064	125.94
243.298	124.94
243.531	123.94
243.765	123.94
243.998	121.94
244.232	111.94
244.465	136.94
244.699	126.94
244.932	129.94
245.166	115.94
245.399	119.94
245.633	122.94
245.866	148.94
246.099	137.94
246.333	148.94
246.566	118.94
246.8	129.94
247.033	129.94
247.266	128.94
247.5	152.94
247.733	154.94
247.966	140.94
248.2	139.94
248.433	145.94
248.666	139.94
248.899	157.94
249.133	161.94
249.366	176.94
249.599	167.94
249.832	160.94
250.066	148.94
250.299	148.94
250.532	169.94
250.765	147.94
250.998	182.94
251.231	165.94
251.465	169.94
251.698	174.94
251.931	155.94
252.164	159.94
252.397	168.94
252.63	160.94
252.863	160.94
253.096	169.94
253.329	178.94
253.562	171.94
253.795	165.94
254.028	173.94
254.261	178.94
254.494	186.94
254.727	204.94
254.96	210.94
255.193	202.94
255.426	197.94
255.659	208.94
255.892	160.94
256.124	189.94
256.357	187.94
256.59	181.94
256.823	165.94
257.056	175.94
257.289	177.94
257.521	191.94
257.754	170.94
257.987	165.94
258.22	172.94
258.452	161.94
258.685	169.94
258.918	188.94
259.151	172.94
259.383	168.94
259.616	166.94
259.849	194.94
260.081	182.94
260.314	195.94
260.547	216.94
260.779	192.94
261.012	197.94
261.244	199.94
261.477	202.94
261.71	190.94
261.942	190.94
262.175	209.94
262.407	195.94
262.64	179.94
262.872	183.94
263.105	197.94
263.337	194.94
263.57	166.94
263.802	172.94
264.035	180.94
264.267	167.94
264.499	191.94
264.732	179.94
264.964	191.94
265.197	196.94
265.429	192.94
265.661	177.94
265.894	175.94
266.126	170.94
266.358	191.94
266.591	179.94
266.823	172.94
267.055	207.94
267.287	189.94
267.52	203.94
267.752	196.94
267.984	196.94
268.216	188.94
268.448	197.94
268.681	205.94
268.913	201.94
269.145	200.94
269.377	244.94
269.609	235.94
269.841	227.94
270.073	225.94
270.306	240.94
270.538	260.94
270.77	243.94
271.002	223.94
271.234	236.94
271.466	253.94
271.698	250.94
271.93	252.94
272.162	236.94
272.394	278.94
272.626	241.94
272.858	229.94
273.09	212.94
273.322	202.94
273.553	229.94
273.785	225.94
274.017	222.94
274.249	208.94
274.481	217.94
274.713	208.94
274.945	224.94
275.176	243.94
275.408	217.94
275.64	220.94
275.872	230.94
276.104	210.94
276.335	222.94
276.567	233.94
276.799	263.94
277.031	266.94
277.262	267.94
277.494	270.94
277.726	261.94
277.957	255.94
278.189	239.94
278.421	239.94
278.652	229.94
278.884	229.94
279.115	242.94
279.347	240.94
279.579	220.94
279.81	224.94
280.042	224.94
280.273	235.94
280.505	222.94
280.736	218.94
280.968	242.94
281.199	241.94
281.431	256.94
281.662	253.94
281.894	241.94
282.125	241.94
282.356	246.94
282.588	254.94
282.819	262.94
283.051	241.94
283.282	233.94
283.513	251.94
283.745	255.94
283.976	243.94
284.207	238.94
284.439	251.94
284.67	259.94
284.901	257.94
285.132	249.94
285.364	247.94
285.595	229.94
285.826	235.94
286.057	242.94
286.288	255.94
286.52	253.94
286.751	251.94
286.982	274.94
287.213	261.94
287.444	233.94
287.675	243.94
287.906	262.94
288.138	248.94
288.369	262.94
288.6	251.94
288.831	264.94
289.062	273.94
289.293	278.94
289.524	243.94
289.755	271.94
289.986	265.94
290.217	263.94
290.448	256.94
290.679	276.94
290.91	261.94
291.141	276.94
291.371	259.94
291.602	261.94
291.833	244.94
292.064	262.94
292.295	262.94
292.526	249.94
292.757	255.94
292.987	260.94
293.218	261.94
293.449	258.94
293.68	259.94
293.91	259.94
294.141	255.94
294.372	246.94
294.603	251.94
294.833	256.94
295.064	264.94
295.295	261.94
295.525	248.94
295.756	283.94
295.987	274.94
296.217	287.94
296.448	289.94
296.679	273.94
296.909	245.94
297.14	274.94
297.37	271.94
297.601	266.94
297.831	268.94
298.062	248.94
298.292	279.94
298.523	273.94
298.753	279.94
298.984	283.94
299.214	287.94
299.445	258.94
299.675	279.94
299.905	275.94
300.136	268.94
300.366	275.94
300.597	283.94
300.827	288.94
301.057	296.94
301.288	298.94
301.518	283.94
301.748	290.94
301.979	301.94
302.209	300.94
302.439	265.94
302.669	299.94
302.9	284.94
303.13	292.94
303.36	279.94
303.59	298.94
303.82	313.94
304.051	286.94
304.281	291.94
304.511	275.94
304.741	306.94
304.971	308.94
305.201	298.94
305.431	274.94
305.661	289.94
305.891	290.94
306.121	292.94
306.352	295.94
306.582	311.94
306.812	292.94
307.042	295.94
307.272	297.94
307.502	278.94
307.731	295.94
307.961	288.94
308.191	293.94
308.421	282.94
308.651	282.94
308.881	301.94
309.111	307.94
309.341	290.94
309.571	281.94
309.8	297.94
310.03	293.94
310.26	318.94
310.49	313.94
310.72	317.94
310.949	340.94
311.179	326.94
311.409	322.94
311.639	319.94
311.868	328.94
312.098	314.94
312.328	333.94
312.557	336.94
312.787	337.94
313.017	309.94
313.246	326.94
313.476	330.94
313.706	300.94
313.935	322.94
314.165	346.94
314.394	325.94
314.624	328.94
314.853	335.94
315.083	337.94
315.312	332.94
315.542	312.94
315.771	319.94
316.001	330.94
316.23	320.94
316.46	327.94
316.689	316.94
316.919	325.94
317.148	335.94
317.377	330.94
317.607	347.94
317.836	331.94
318.065	331.94
318.295	332.94
318.524	327.94
318.753	324.94
318.983	325.94
319.212	322.94
319.441	320.94
319.67	332.94
319.9	320.94
320.129	328.94
320.358	325.94
320.587	331.94
320.816	320.94
321.046	346.94
321.275	343.94
321.504	333.94
321.733	330.94
321.962	340.94
322.191	331.94
322.42	344.94
322.649	347.94
322.878	349.94
323.108	362.94
323.337	370.94
323.566	371.94
323.795	394.94
324.024	428.94
324.253	477.94
324.482	644.94
324.71	926.94
324.939	1217.94
325.168	1001.94
325.397	593.94
325.626	447.94
325.855	379.94
326.084	398.94
326.313	385.94
326.542	407.94
326.77	411.94
326.999	458.94
327.228	600.94
327.457	813.94
327.686	933.94
327.914	653.94
328.143	499.94
328.372	434.94
328.6	436.94
328.829	397.94
329.058	437.94
329.287	430.94
329.515	415.94
329.744	398.94
329.972	389.94
330.201	420.94
330.43	436.94
330.658	413.94
330.887	461.94
331.115	435.94
331.344	408.94
331.572	412.94
331.801	415.94
332.03	402.94
332.258	396.94
332.486	385.94
332.715	401.94
332.943	396.94
333.172	409.94
333.4	414.94
333.629	417.94
333.857	411.94
334.085	439.94
334.314	443.94
334.542	468.94
334.771	457.94
334.999	428.94
335.227	404.94
335.455	417.94
335.684	399.94
335.912	401.94
336.14	398.94
336.369	402.94
336.597	396.94
336.825	396.94
337.053	381.94
337.281	370.94
337.51	385.94
337.738	379.94
337.966	372.94
338.194	375.94
338.422	383.94
338.65	361.94
338.878	364.94
339.106	357.94
339.334	372.94
339.562	360.94
339.79	363.94
340.018	378.94
340.246	362.94
340.474	373.94
340.702	359.94
340.93	343.94
341.158	380.94
341.386	357.94
341.614	351.94
341.842	349.94
342.07	351.94
342.298	375.94
342.526	349.94
342.754	343.94
342.981	345.94
343.209	349.94
343.437	377.94
343.665	379.94
343.893	381.94
344.12	386.94
344.348	385.94
344.576	385.94
344.804	398.94
345.031	373.94
345.259	387.94
345.487	364.94
345.714	360.94
345.942	340.94
346.17	333.94
346.397	345.94
346.625	355.94
346.853	351.94
347.08	364.94
347.308	340.94
347.535	337.94
347.763	375.94
347.99	357.94
348.218	360.94
348.445	346.94
348.673	369.94
348.9	357.94
349.128	341.94
349.355	327.94
349.583	339.94
349.81	337.94
350.037	330.94
350.265	331.94
350.492	331.94
350.72	317.94
350.947	339.94
351.174	329.94
351.402	343.94
351.629	355.94
351.856	342.94
352.083	357.94
352.311	352.94
352.538	355.94
352.765	348.94
352.992	341.94
353.22	329.94
353.447	325.94
353.674	340.94
353.901	309.94
354.128	327.94
354.355	325.94
354.583	323.94
354.81	332.94
355.037	332.94
355.264	321.94
355.491	331.94
355.718	330.94
355.945	331.94
356.172	319.94
356.399	331.94
356.626	314.94
356.853	341.94
357.08	340.94
357.307	332.94
357.534	317.94
357.761	312.94
357.988	324.94
358.215	318.94
358.441	313.94
358.668	328.94
358.895	352.94
359.122	345.94
359.349	331.94
359.576	334.94
359.802	355.94
360.029	346.94
360.256	358.94
360.483	368.94
360.709	344.94
360.936	329.94
361.163	329.94
361.39	334.94
361.616	329.94
361.843	324.94
362.07	329.94
362.296	334.94
362.523	333.94
362.749	359.94
362.976	339.94
363.203	324.94
363.429	323.94
363.656	304.94
363.882	331.94
364.109	338.94
364.335	315.94
364.562	329.94
364.788	345.94
365.015	322.94
365.241	332.94
365.468	357.94
365.694	315.94
365.92	330.94
366.147	310.94
366.373	315.94
366.599	317.94
366.826	298.94
367.052	323.94
367.278	339.94
367.505	331.94
367.731	334.94
367.957	325.94
368.184	338.94
368.41	351.94
368.636	350.94
368.862	333.94
369.089	329.94
369.315	318.94
369.541	335.94
369.767	325.94
369.993	318.94
370.219	327.94
370.445	332.94
370.672	326.94
370.898	341.94
371.124	339.94
371.35	341.94
371.576	331.94
371.802	333.94
372.028	350.94
372.254	349.94
372.48	343.94
372.706	325.94
372.932	327.94
373.158	350.94
373.384	339.94
373.61	348.94
373.835	333.94
374.061	331.94
374.287	346.94
374.513	355.94
374.739	330.94
374.965	355.94
375.191	338.94
375.416	346.94
375.642	339.94
375.868	350.94
376.094	333.94
376.319	346.94
376.545	327.94
376.771	330.94
376.997	332.94
377.222	323.94
377.448	321.94
377.674	325.94
377.899	335.94
378.125	339.94
378.35	339.94
378.576	332.94
378.802	354.94
379.027	339.94
379.253	328.94
379.478	350.94
379.704	340.94
379.929	343.94
380.155	334.94
380.38	335.94
380.606	328.94
380.831	333.94
381.057	345.94
381.282	331.94
381.507	334.94
381.733	332.94
381.958	338.94
382.184	344.94
382.409	347.94
382.634	324.94
382.86	335.94
383.085	338.94
383.31	359.94
383.535	353.94
383.761	335.94
383.986	356.94
384.211	352.94
384.436	355.94
384.662	370.94
384.887	371.94
385.112	353.94
385.337	364.94
385.562	372.94
385.787	359.94
386.013	377.94
386.238	393.94
386.463	375.94
386.688	372.94
386.913	381.94
387.138	381.94
387.363	362.94
387.588	376.94
387.813	370.94
388.038	379.94
388.263	351.94
388.488	353.94
388.713	367.94
388.938	364.94
389.163	373.94
389.387	367.94
389.612	349.94
389.837	361.94
390.062	378.94
390.287	379.94
390.512	379.94
390.736	369.94
390.961	367.94
391.186	372.94
391.411	387.94
391.636	401.94
391.86	391.94
392.085	395.94
392.31	409.94
392.534	389.94
392.759	389.94
392.984	384.94
393.208	376.94
393.433	376.94
393.658	375.94
393.882	373.94
394.107	376.94
394.331	395.94
394.556	390.94
394.78	371.94
395.005	375.94
395.229	394.94
395.454	377.94
395.678	396.94
395.903	372.94
396.127	409.94
396.352	407.94
396.576	376.94
396.801	394.94
397.025	401.94
397.249	402.94
397.474	403.94
397.698	403.94
397.922	409.94
398.147	426.94
398.371	413.94
398.595	437.94
398.82	423.94
399.044	455.94
399.268	476.94
399.492	533.94
399.717	578.94
399.941	563.94
400.165	515.94
400.389	541.94
400.613	496.94
400.837	477.94
401.062	447.94
401.286	439.94
401.51	456.94
401.734	401.94
401.958	447.94
402.182	463.94
402.406	456.94
402.63	451.94
402.854	449.94
403.078	459.94
403.302	449.94
403.526	475.94
403.75	461.94
403.974	463.94
404.198	471.94
404.422	487.94
404.645	489.94
404.869	472.94
405.093	492.94
405.317	485.94
405.541	515.94
405.765	495.94
405.988	468.94
406.212	485.94
406.436	487.94
406.66	521.94
406.883	476.94
407.107	513.94
407.331	538.94
407.555	587.94
407.778	570.94
408.002	552.94
408.226	501.94
408.449	483.94
408.673	504.94
408.896	503.94
409.12	504.94
409.344	495.94
409.567	451.94
409.791	470.94
410.014	445.94
410.238	453.94
410.461	464.94
410.685	451.94
410.908	466.94
411.132	476.94
411.355	487.94
411.578	483.94
411.802	450.94
412.025	459.94
412.249	462.94
412.472	497.94
412.695	471.94
412.919	472.94
413.142	441.94
413.365	424.94
413.589	450.94
413.812	427.94
414.035	431.94
414.258	427.94
414.482	431.94
414.705	435.94
414.928	430.94
415.151	450.94
415.374	421.94
415.597	432.94
415.821	431.94
416.044	406.94
416.267	432.94
416.49	419.94
416.713	410.94
416.936	429.94
417.159	433.94
417.382	439.94
417.605	421.94
417.828	429.94
418.051	453.94
418.274	437.94
418.497	441.94
418.72	437.94
418.943	441.94
419.166	450.94
419.389	485.94
419.611	468.94
419.834	471.94
420.057	470.94
420.28	464.94
420.503	440.94
420.726	457.94
420.948	456.94
421.171	461.94
421.394	479.94
421.617	450.94
421.839	447.94
422.062	458.94
422.285	460.94
422.507	473.94
422.73	506.94
422.953	515.94
423.175	486.94
423.398	477.94
423.621	468.94
423.843	475.94
424.066	474.94
424.288	471.94
424.511	498.94
424.733	503.94
424.956	535.94
425.178	539.94
425.401	502.94
425.623	504.94
425.846	478.94
426.068	450.94
426.291	448.94
426.513	456.94
426.735	465.94
426.958	482.94
427.18	543.94
427.402	577.94
427.625	612.94
427.847	564.94
428.069	504.94
428.292	464.94
428.514	442.94
428.736	409.94
428.958	427.94
429.181	415.94
429.403	419.94
429.625	418.94
429.847	431.94
430.069	487.94
430.292	472.94
430.514	397.94
430.736	420.94
430.958	408.94
431.18	416.94
431.402	401.94
431.624	397.94
431.846	408.94
432.068	417.94
432.29	406.94
432.512	411.94
432.734	405.94
432.956	405.94
433.178	392.94
433.4	393.94
433.622	417.94
433.844	427.94
434.066	410.94
434.287	404.94
434.509	417.94
434.731	432.94
434.953	460.94
435.175	430.94
435.397	449.94
435.618	432.94
435.84	489.94
436.062	546.94
436.284	525.94
436.505	485.94
436.727	454.94
436.949	426.94
437.17	420.94
437.392	408.94
437.614	405.94
437.835	435.94
438.057	493.94
438.278	563.94
438.5	537.94
438.721	562.94
438.943	562.94
439.165	465.94
439.386	451.94
439.608	431.94
439.829	425.94
440.05	455.94
440.272	476.94
440.493	435.94
440.715	424.94
440.936	443.94
441.158	441.94
441.379	432.94
441.6	446.94
441.822	472.94
442.043	481.94
442.264	517.94
442.486	537.94
442.707	477.94
442.928	460.94
443.149	472.94
443.371	463.94
443.592	483.94
443.813	528.94
444.034	567.94
444.255	503.94
444.476	483.94
444.698	473.94
444.919	489.94
445.14	606.94
445.361	539.94
445.582	483.94
445.803	495.94
446.024	556.94
446.245	552.94
446.466	507.94
446.687	466.94
446.908	430.94
447.129	405.94
447.35	416.94
447.571	396.94
447.792	394.94
448.013	419.94
448.234	420.94
448.455	419.94
448.675	508.94
448.896	596.94
449.117	496.94
449.338	481.94
449.559	525.94
449.779	576.94
450	467.94
450.221	412.94
450.442	417.94
450.662	402.94
450.883	413.94
451.104	399.94
451.324	385.94
451.545	380.94
451.766	377.94
451.986	361.94
452.207	358.94
452.428	378.94
452.648	347.94
452.869	371.94
453.089	371.94
453.31	375.94
453.53	358.94
453.751	376.94
453.971	367.94
454.192	373.94
454.412	363.94
454.633	372.94
454.853	361.94
455.073	364.94
455.294	396.94
455.514	414.94
455.734	389.94
455.955	351.94
456.175	379.94
456.395	350.94
456.616	375.94
456.836	342.94
457.056	340.94
457.276	315.94
457.497	337.94
457.717	353.94
457.937	369.94
458.157	351.94
458.377	375.94
458.598	373.94
458.818	421.94
459.038	459.94
459.258	483.94
459.478	427.94
459.698	399.94
459.918	411.94
460.138	393.94
460.358	426.94
460.578	425.94
460.798	435.94
461.018	425.94
461.238	434.94
461.458	409.94
461.678	419.94
461.898	433.94
462.118	447.94
462.338	423.94
462.558	456.94
462.777	479.94
462.997	513.94
463.217	498.94
463.437	517.94
463.657	484.94
463.876	476.94
464.096	459.94
464.316	468.94
464.536	479.94
464.755	483.94
464.975	458.94
465.195	487.94
465.414	491.94
465.634	444.94
465.854	421.94
466.073	427.94
466.293	403.94
466.512	400.94
466.732	388.94
466.951	378.94
467.171	380.94
467.391	393.94
467.61	406.94
467.829	418.94
468.049	390.94
468.268	380.94
468.488	387.94
468.707	351.94
468.927	375.94
469.146	375.94
469.365	389.94
469.585	371.94
469.804	368.94
470.023	398.94
470.243	407.94
470.462	399.94
470.681	411.94
470.901	405.94
471.12	384.94
471.339	399.94
471.558	407.94
471.777	373.94
471.997	403.94
472.216	398.94
472.435	400.94
472.654	406.94
472.873	390.94
473.092	388.94
473.311	370.94
473.53	368.94
473.749	387.94
473.968	435.94
474.187	445.94
474.406	475.94
474.625	425.94
474.844	396.94
475.063	397.94
475.282	406.94
475.501	386.94
475.72	403.94
475.939	404.94
476.158	398.94
476.377	391.94
476.596	395.94
476.814	407.94
477.033	390.94
477.252	401.94
477.471	412.94
477.69	406.94
477.908	427.94
478.127	454.94
478.346	449.94
478.564	447.94
478.783	444.94
479.002	449.94
479.22	460.94
479.439	443.94
479.658	455.94
479.876	457.94
480.095	488.94
480.313	502.94
480.532	467.94
480.751	477.94
480.969	465.94
481.188	511.94
481.406	519.94
481.624	486.94
481.843	464.94
482.061	470.94
482.28	436.94
482.498	446.94
482.717	429.94
482.935	450.94
483.153	441.94
483.372	449.94
483.59	424.94
483.808	446.94
484.027	456.94
484.245	419.94
484.463	435.94
484.681	458.94
484.9	444.94
485.118	454.94
485.336	447.94
485.554	460.94
485.772	433.94
485.99	457.94
486.209	444.94
486.427	482.94
486.645	486.94
486.863	479.94
487.081	480.94
487.299	483.94
487.517	486.94
487.735	495.94
487.953	476.94
488.171	475.94
488.389	467.94
488.607	468.94
488.825	483.94
489.043	471.94
489.261	488.94
489.479	473.94
489.696	485.94
489.914	484.94
490.132	484.94
490.35	497.94
490.568	476.94
490.786	517.94
491.003	510.94
491.221	521.94
491.439	514.94
491.657	534.94
491.874	540.94
492.092	548.94
492.31	535.94
492.527	549.94
492.745	543.94
492.963	547.94
493.18	555.94
493.398	561.94
493.615	553.94
493.833	556.94
494.05	555.94
494.268	541.94
494.485	552.94
494.703	581.94
494.92	547.94
495.138	572.94
495.355	562.94
495.573	582.94
495.79	567.94
496.008	560.94
496.225	557.94
496.442	557.94
496.66	552.94
496.877	568.94
497.094	554.94
497.312	579.94
497.529	575.94
497.746	571.94
497.963	606.94
498.181	625.94
498.398	608.94
498.615	647.94
498.832	660.94
499.049	691.94
499.267	711.94
499.484	762.94
499.701	808.94
499.918	852.94
500.135	892.94
500.352	961.94
500.569	987.94
500.786	969.94
501.003	967.94
501.22	907.94
501.437	856.94
501.654	834.94
501.871	769.94
502.088	710.94
502.305	700.94
502.522	678.94
502.739	639.94
502.956	603.94
503.172	604.94
503.389	589.94
503.606	572.94
503.823	587.94
504.04	591.94
504.256	573.94
504.473	584.94
504.69	587.94
504.907	565.94
505.123	560.94
505.34	567.94
505.557	543.94
505.773	537.94
505.99	532.94
506.207	516.94
506.423	503.94
506.64	505.94
506.856	499.94
507.073	499.94
507.289	506.94
507.506	484.94
507.722	501.94
507.939	495.94
508.155	476.94
508.372	483.94
508.588	468.94
508.805	468.94
509.021	485.94
509.238	479.94
509.454	499.94
509.67	468.94
509.887	464.94
510.103	476.94
510.319	475.94
510.536	575.94
510.752	774.94
510.968	656.94
511.184	479.94
511.401	459.94
511.617	465.94
511.833	448.94
512.049	455.94
512.265	453.94
512.481	461.94
512.698	455.94
512.914	445.94
513.13	466.94
513.346	457.94
513.562	457.94
513.778	440.94
513.994	471.94
514.21	483.94
514.426	499.94
514.642	497.94
514.858	509.94
515.074	524.94
515.29	592.94
515.506	822.94
515.721	699.94
515.937	531.94
516.153	507.94
516.369	482.94
516.585	492.94
516.801	487.94
517.016	497.94
517.232	507.94
517.448	502.94
517.664	539.94
517.879	533.94
518.095	547.94
518.311	514.94
518.527	513.94
518.742	512.94
518.958	492.94
519.173	481.94
519.389	460.94
519.605	487.94
519.82	467.94
520.036	479.94
520.251	443.94
520.467	478.94
520.682	462.94
520.898	495.94
521.113	482.94
521.329	486.94
521.544	544.94
521.76	632.94
521.975	993.94
522.19	982.94
522.406	591.94
522.621	479.94
522.836	455.94
523.052	433.94
523.267	431.94
523.482	409.94
523.698	422.94
523.913	406.94
524.128	407.94
524.343	431.94
524.559	413.94
524.774	383.94
524.989	388.94
525.204	411.94
525.419	390.94
525.634	363.94
525.849	374.94
526.064	393.94
526.28	387.94
526.495	369.94
526.71	382.94
526.925	379.94
527.14	367.94
527.355	393.94
527.57	391.94
527.785	374.94
527.999	398.94
528.214	378.94
528.429	382.94
528.644	383.94
528.859	381.94
529.074	411.94
529.289	391.94
529.503	452.94
529.718	418.94
529.933	411.94
530.148	383.94
530.363	401.94
530.577	362.94
530.792	362.94
531.007	364.94
531.221	359.94
531.436	364.94
531.651	346.94
531.865	365.94
532.08	379.94
532.295	379.94
532.509	372.94
532.724	389.94
532.938	388.94
533.153	368.94
533.367	378.94
533.582	385.94
533.796	370.94
534.011	352.94
534.225	369.94
534.44	365.94
534.654	367.94
534.868	383.94
535.083	355.94
535.297	376.94
535.511	390.94
535.726	385.94
535.94	374.94
536.154	385.94
536.369	379.94
536.583	354.94
536.797	333.94
537.011	348.94
537.225	342.94
537.44	362.94
537.654	353.94
537.868	364.94
538.082	355.94
538.296	365.94
538.51	376.94
538.724	353.94
538.938	369.94
539.153	372.94
539.367	371.94
539.581	364.94
539.795	358.94
540.009	356.94
540.222	352.94
540.436	364.94
540.65	335.94
540.864	339.94
541.078	352.94
541.292	375.94
541.506	362.94
541.72	381.94
541.934	355.94
542.147	367.94
542.361	368.94
542.575	362.94
542.789	364.94
543.002	360.94
543.216	359.94
543.43	368.94
543.644	361.94
543.857	347.94
544.071	355.94
544.285	369.94
544.498	353.94
544.712	373.94
544.925	362.94
545.139	364.94
545.352	352.94
545.566	347.94
545.779	347.94
545.993	363.94
546.206	355.94
546.42	356.94
546.633	366.94
546.847	357.94
547.06	351.94
547.274	347.94
547.487	362.94
547.7	364.94
547.914	348.94
548.127	356.94
548.34	360.94
548.554	355.94
548.767	356.94
548.98	373.94
549.193	363.94
549.407	373.94
549.62	363.94
549.833	360.94
550.046	374.94
550.259	361.94
550.473	339.94
550.686	356.94
550.899	359.94
551.112	355.94
551.325	353.94
551.538	331.94
551.751	345.94
551.964	345.94
552.177	332.94
552.39	373.94
552.603	373.94
552.816	363.94
553.029	369.94
553.242	375.94
553.455	377.94
553.667	403.94
553.88	381.94
554.093	383.94
554.306	364.94
554.519	363.94
554.732	366.94
554.944	360.94
555.157	345.94
555.37	315.94
555.583	345.94
555.795	348.94
556.008	352.94
556.221	332.94
556.433	316.94
556.646	317.94
556.859	322.94
557.071	323.94
557.284	317.94
557.496	320.94
557.709	314.94
557.921	320.94
558.134	328.94
558.346	292.94
558.559	312.94
558.771	308.94
558.984	315.94
559.196	292.94
559.409	321.94
559.621	313.94
559.833	320.94
560.046	310.94
560.258	311.94
560.47	316.94
560.683	288.94
560.895	306.94
561.107	312.94
561.32	297.94
561.532	311.94
561.744	307.94
561.956	313.94
562.168	312.94
562.381	309.94
562.593	310.94
562.805	322.94
563.017	306.94
563.229	305.94
563.441	322.94
563.653	298.94
563.865	320.94
564.077	313.94
564.289	310.94
564.501	314.94
564.713	314.94
564.925	326.94
565.137	341.94
565.349	343.94
565.561	345.94
565.773	355.94
565.985	368.94
566.197	372.94
566.408	374.94
566.62	403.94
566.832	437.94
567.044	431.94
567.255	421.94
567.467	434.94
567.679	441.94
567.891	481.94
568.102	466.94
568.314	452.94
568.526	435.94
568.737	418.94
568.949	380.94
569.161	369.94
569.372	368.94
569.584	346.94
569.795	327.94
570.007	317.94
570.218	346.94
570.43	349.94
570.641	319.94
570.853	312.94
571.064	323.94
571.276	311.94
571.487	313.94
571.698	315.94
571.91	302.94
572.121	300.94
572.333	297.94
572.544	279.94
572.755	298.94
572.966	276.94
573.178	266.94
573.389	281.94
573.6	273.94
573.811	275.94
574.023	271.94
574.234	266.94
574.445	276.94
574.656	275.94
574.867	272.94
575.078	265.94
575.289	281.94
575.501	269.94
575.712	268.94
575.923	272.94
576.134	274.94
576.345	262.94
576.556	267.94
576.767	258.94
576.978	269.94
577.188	261.94
577.399	261.94
577.61	276.94
577.821	250.94
578.032	268.94
578.243	271.94
578.454	388.94
578.665	324.94
578.875	271.94
579.086	253.94
579.297	263.94
579.508	255.94
579.718	257.94
579.929	237.94
580.14	259.94
580.35	247.94
580.561	258.94
580.772	263.94
580.982	271.94
581.193	243.94
581.403	248.94
581.614	258.94
581.825	241.94
582.035	220.94
582.246	243.94
582.456	250.94
582.667	243.94
582.877	255.94
583.087	227.94
583.298	244.94
583.508	259.94
583.719	251.94
583.929	258.94
584.139	234.94
584.35	242.94
584.56	232.94
584.77	253.94
584.981	231.94
585.191	245.94
585.401	236.94
585.611	244.94
585.821	256.94
586.032	232.94
586.242	235.94
586.452	255.94
586.662	260.94
586.872	230.94
587.082	212.94
587.292	228.94
587.502	221.94
587.713	231.94
587.923	246.94
588.133	247.94
588.343	229.94
588.553	226.94
588.762	239.94
588.972	247.94
589.182	251.94
589.392	245.94
589.602	244.94
589.812	245.94
590.022	242.94
590.232	244.94
590.441	240.94
590.651	240.94
590.861	261.94
591.071	236.94
591.281	261.94
591.49	248.94
591.7	244.94
591.91	266.94
592.119	251.94
592.329	250.94
592.539	283.94
592.748	281.94
592.958	263.94
593.167	283.94
593.377	277.94
593.587	289.94
593.796	260.94
594.006	261.94
594.215	283.94
594.424	286.94
594.634	291.94
594.843	282.94
595.053	264.94
595.262	257.94
595.472	257.94
595.681	244.94
595.89	246.94
596.1	248.94
596.309	229.94
596.518	234.94
596.727	234.94
596.937	240.94
597.146	247.94
597.355	206.94
597.564	216.94
597.774	226.94
597.983	215.94
598.192	232.94
598.401	244.94
598.61	218.94
598.819	229.94
599.028	238.94
599.237	203.94
599.446	221.94
599.655	235.94
599.864	221.94
600.073	214.94
600.282	218.94
600.491	224.94
600.7	217.94
600.909	226.94
601.118	209.94
601.327	212.94
601.536	211.94
601.745	208.94
601.953	215.94
602.162	218.94
602.371	191.94
602.58	215.94
602.789	214.94
602.997	222.94
603.206	208.94
603.415	214.94
603.623	213.94
603.832	215.94
604.041	215.94
604.249	201.94
604.458	209.94
604.666	193.94
604.875	183.94
605.084	194.94
605.292	211.94
605.501	208.94
605.709	217.94
605.918	200.94
606.126	185.94
606.334	223.94
606.543	210.94
606.751	221.94
606.96	198.94
607.168	201.94
607.376	191.94
607.585	198.94
607.793	204.94
608.001	197.94
608.21	205.94
608.418	198.94
608.626	191.94
608.834	202.94
609.043	199.94
609.251	192.94
609.459	195.94
609.667	211.94
609.875	210.94
610.083	218.94
610.291	216.94
610.499	192.94
610.707	199.94
610.916	191.94
611.124	207.94
611.332	204.94
611.54	216.94
611.748	215.94
611.955	198.94
612.163	197.94
612.371	206.94
612.579	189.94
612.787	194.94
612.995	205.94
613.203	204.94
613.411	208.94
613.618	196.94
613.826	207.94
614.034	209.94
614.242	198.94
614.449	199.94
614.657	202.94
614.865	180.94
615.072	190.94
615.28	203.94
615.488	194.94
615.695	196.94
615.903	206.94
616.111	217.94
616.318	202.94
616.526	195.94
616.733	219.94
616.941	205.94
617.148	200.94
617.356	200.94
617.563	201.94
617.771	208.94
617.978	205.94
618.185	201.94
618.393	190.94
618.6	193.94
618.807	197.94
619.015	204.94
619.222	194.94
619.429	204.94
619.637	188.94
619.844	197.94
620.051	186.94
620.258	189.94
620.466	184.94
620.673	183.94
620.88	188.94
621.087	195.94
621.294	194.94
621.501	211.94
621.708	195.94
621.915	224.94
622.122	182.94
622.329	205.94
622.536	195.94
622.743	201.94
622.95	186.94
623.157	189.94
623.364	183.94
623.571	175.94
623.778	198.94
623.985	182.94
624.192	171.94
624.399	188.94
624.606	191.94
624.812	181.94
625.019	195.94
625.226	175.94
625.433	177.94
625.639	184.94
625.846	185.94
626.053	184.94
626.259	178.94
626.466	178.94
626.673	166.94
626.879	179.94
627.086	164.94
627.293	188.94
627.499	181.94
627.706	169.94
627.912	170.94
628.119	185.94
628.325	186.94
628.532	191.94
628.738	165.94
628.945	182.94
629.151	178.94
629.357	177.94
629.564	163.94
629.77	160.94
629.976	149.94
630.183	161.94
630.389	168.94
630.595	178.94
630.802	168.94
631.008	166.94
631.214	154.94
631.42	164.94
631.627	186.94
631.833	171.94
632.039	157.94
632.245	187.94
632.451	177.94
632.657	164.94
632.863	169.94
633.069	173.94
633.275	160.94
633.481	161.94
633.688	160.94
633.893	172.94
634.099	169.94
634.305	152.94
634.511	171.94
634.717	159.94
634.923	153.94
635.129	170.94
635.335	150.94
635.541	149.94
635.747	145.94
635.952	149.94
636.158	152.94
636.364	156.94
636.57	152.94
636.775	126.94
636.981	173.94
637.187	164.94
637.392	158.94
637.598	161.94
637.804	155.94
638.009	147.94
638.215	171.94
638.421	166.94
638.626	147.94
638.832	149.94
639.037	148.94
639.243	157.94
639.448	162.94
639.654	149.94
639.859	153.94
640.065	144.94
640.27	147.94
640.475	154.94
640.681	141.94
640.886	151.94
641.091	143.94
641.297	166.94
641.502	133.94
641.707	155.94
641.913	148.94
642.118	151.94
642.323	156.94
642.528	140.94
642.733	148.94
642.939	149.94
643.144	145.94
643.349	154.94
643.554	140.94
643.759	137.94
643.964	138.94
644.169	155.94
644.374	152.94
644.579	139.94
644.784	140.94
644.989	150.94
645.194	146.94
645.399	146.94
645.604	145.94
645.809	135.94
646.014	164.94
646.219	163.94
646.423	150.94
646.628	143.94
646.833	152.94
647.038	164.94
647.243	148.94
647.447	153.94
647.652	156.94
647.857	133.94
648.062	151.94
648.266	156.94
648.471	149.94
648.676	163.94
648.88	158.94
649.085	151.94
649.289	166.94
649.494	149.94
649.698	155.94
649.903	151.94
650.107	154.94
650.312	151.94
650.516	148.94
650.721	147.94
650.925	143.94
651.13	135.94
651.334	133.94
651.539	120.94
651.743	128.94
651.947	139.94
652.152	131.94
652.356	121.94
652.56	137.94
652.764	147.94
652.969	141.94
653.173	129.94
653.377	140.94
653.581	127.94
653.785	133.94
653.99	129.94
654.194	128.94
654.398	149.94
654.602	140.94
654.806	125.94
655.01	130.94
655.214	142.94
655.418	115.94
655.622	120.94
655.826	108.94
656.03	127.94
656.234	132.94
656.438	128.94
656.642	119.94
656.846	137.94
657.049	119.94
657.253	105.94
657.457	121.94
657.661	111.94
657.865	124.94
658.068	124.94
658.272	128.94
658.476	103.94
658.68	106.94
658.883	112.94
659.087	106.94
659.291	98.94
659.494	96.94
659.698	95.94
659.901	93.94
660.105	84.94
660.309	92.94
660.512	93.94
660.716	91.94
660.919	91.94
661.123	98.94
661.326	90.94
661.53	93.94
661.733	87.94
661.936	90.94
662.14	87.94
662.343	96.94
662.546	89.94
662.75	90.94
662.953	87.94
663.156	76.94
663.36	98.94
663.563	75.94
663.766	78.94
663.969	78.94
664.173	93.94
664.376	77.94
664.579	88.94
664.782	83.94
664.985	77.94
665.188	82.94
665.391	85.94
665.594	88.94
665.797	69.94
666	72.94
666.203	71.94
666.406	76.94
666.609	87.94
666.812	77.94
667.015	77.94
667.218	75.94
667.421	81.94
667.624	85.94
667.827	76.94
668.03	88.94
668.232	79.94
668.435	81.94
668.638	79.94
668.841	102.94
669.043	89.94
669.246	78.94
669.449	79.94
669.651	68.94
669.854	81.94
670.057	84.94
670.259	71.94
670.462	76.94
670.665	83.94
670.867	62.94
671.07	78.94
671.272	94.94
671.475	81.94
671.677	80.94
671.88	78.94
672.082	81.94
672.284	77.94
672.487	77.94
672.689	76.94
672.892	86.94
