Data from 1969.PennyLincolnUp.Lamp.En5.5.200Scan.071719.P1._HRD10591_14-56-11-973.txt Node
Date: Thu Jul 18 14:56:11 EDT 2019
User: cochatt
Spectrometer: HR+D1059
Trigger mode: 1
Integration Time (sec): 1.000000E-1
Scans to average: 1
Electric dark correction enabled: true
Nonlinearity correction enabled: false
Boxcar width: 0
XAxis mode: Wavelengths
Number of Pixels in Spectrum: 2048
>>>>>Begin Spectral Data<<<<<
223.165	-1.69
223.4	-1.69
223.635	-1.69
223.869	-33.69
224.104	-18.69
224.338	-29.69
224.573	-9.69
224.808	-5.69
225.042	-7.69
225.277	-4.69
225.511	5.31
225.746	0.31
225.98	8.31
226.215	23.31
226.449	13.31
226.683	27.31
226.918	20.31
227.152	13.31
227.387	33.31
227.621	49.31
227.856	39.31
228.09	52.31
228.324	50.31
228.559	52.31
228.793	82.31
229.027	80.31
229.262	88.31
229.496	108.31
229.73	103.31
229.964	117.31
230.199	100.31
230.433	96.31
230.667	94.31
230.901	88.31
231.136	96.31
231.37	85.31
231.604	116.31
231.838	105.31
232.072	103.31
232.306	108.31
232.541	96.31
232.775	109.31
233.009	111.31
233.243	111.31
233.477	119.31
233.711	120.31
233.945	94.31
234.179	111.31
234.413	115.31
234.647	97.31
234.881	93.31
235.115	106.31
235.349	111.31
235.583	117.31
235.817	107.31
236.051	117.31
236.285	121.31
236.519	128.31
236.753	130.31
236.987	138.31
237.221	147.31
237.455	167.31
237.689	148.31
237.922	124.31
238.156	122.31
238.39	121.31
238.624	126.31
238.858	111.31
239.091	113.31
239.325	103.31
239.559	105.31
239.793	116.31
240.027	124.31
240.26	125.31
240.494	141.31
240.728	127.31
240.961	136.31
241.195	127.31
241.429	123.31
241.662	123.31
241.896	121.31
242.13	130.31
242.363	112.31
242.597	109.31
242.83	126.31
243.064	134.31
243.298	116.31
243.531	128.31
243.765	128.31
243.998	129.31
244.232	134.31
244.465	129.31
244.699	132.31
244.932	120.31
245.166	142.31
245.399	128.31
245.633	131.31
245.866	142.31
246.099	135.31
246.333	144.31
246.566	140.31
246.8	138.31
247.033	143.31
247.266	122.31
247.5	141.31
247.733	144.31
247.966	151.31
248.2	152.31
248.433	148.31
248.666	152.31
248.899	150.31
249.133	161.31
249.366	179.31
249.599	149.31
249.832	159.31
250.066	169.31
250.299	146.31
250.532	164.31
250.765	172.31
250.998	180.31
251.231	171.31
251.465	173.31
251.698	162.31
251.931	156.31
252.164	166.31
252.397	188.31
252.63	171.31
252.863	173.31
253.096	184.31
253.329	190.31
253.562	189.31
253.795	186.31
254.028	164.31
254.261	164.31
254.494	199.31
254.727	223.31
254.96	257.31
255.193	218.31
255.426	208.31
255.659	191.31
255.892	203.31
256.124	184.31
256.357	198.31
256.59	196.31
256.823	188.31
257.056	197.31
257.289	186.31
257.521	180.31
257.754	177.31
257.987	186.31
258.22	170.31
258.452	195.31
258.685	182.31
258.918	185.31
259.151	178.31
259.383	174.31
259.616	195.31
259.849	175.31
260.081	190.31
260.314	222.31
260.547	199.31
260.779	200.31
261.012	188.31
261.244	206.31
261.477	194.31
261.71	187.31
261.942	196.31
262.175	198.31
262.407	214.31
262.64	190.31
262.872	187.31
263.105	194.31
263.337	178.31
263.57	177.31
263.802	175.31
264.035	202.31
264.267	193.31
264.499	191.31
264.732	187.31
264.964	189.31
265.197	193.31
265.429	180.31
265.661	196.31
265.894	202.31
266.126	182.31
266.358	194.31
266.591	206.31
266.823	201.31
267.055	200.31
267.287	189.31
267.52	187.31
267.752	173.31
267.984	194.31
268.216	200.31
268.448	186.31
268.681	199.31
268.913	219.31
269.145	244.31
269.377	237.31
269.609	238.31
269.841	228.31
270.073	239.31
270.306	251.31
270.538	268.31
270.77	256.31
271.002	259.31
271.234	243.31
271.466	247.31
271.698	263.31
271.93	262.31
272.162	268.31
272.394	246.31
272.626	254.31
272.858	250.31
273.09	251.31
273.322	234.31
273.553	228.31
273.785	210.31
274.017	224.31
274.249	227.31
274.481	209.31
274.713	223.31
274.945	244.31
275.176	222.31
275.408	234.31
275.64	219.31
275.872	244.31
276.104	230.31
276.335	236.31
276.567	238.31
276.799	243.31
277.031	268.31
277.262	270.31
277.494	274.31
277.726	272.31
277.957	251.31
278.189	247.31
278.421	237.31
278.652	210.31
278.884	246.31
279.115	248.31
279.347	232.31
279.579	230.31
279.81	233.31
280.042	235.31
280.273	249.31
280.505	234.31
280.736	238.31
280.968	236.31
281.199	244.31
281.431	248.31
281.662	250.31
281.894	242.31
282.125	234.31
282.356	248.31
282.588	250.31
282.819	272.31
283.051	253.31
283.282	233.31
283.513	243.31
283.745	252.31
283.976	250.31
284.207	245.31
284.439	250.31
284.67	249.31
284.901	244.31
285.132	248.31
285.364	232.31
285.595	242.31
285.826	252.31
286.057	259.31
286.288	260.31
286.52	254.31
286.751	231.31
286.982	247.31
287.213	255.31
287.444	243.31
287.675	260.31
287.906	262.31
288.138	268.31
288.369	286.31
288.6	266.31
288.831	267.31
289.062	267.31
289.293	270.31
289.524	261.31
289.755	249.31
289.986	292.31
290.217	251.31
290.448	269.31
290.679	251.31
290.91	263.31
291.141	270.31
291.371	253.31
291.602	262.31
291.833	276.31
292.064	268.31
292.295	274.31
292.526	264.31
292.757	273.31
292.987	278.31
293.218	264.31
293.449	285.31
293.68	291.31
293.91	274.31
294.141	272.31
294.372	262.31
294.603	276.31
294.833	283.31
295.064	278.31
295.295	268.31
295.525	280.31
295.756	252.31
295.987	259.31
296.217	282.31
296.448	284.31
296.679	271.31
296.909	264.31
297.14	278.31
297.37	270.31
297.601	272.31
297.831	282.31
298.062	274.31
298.292	289.31
298.523	282.31
298.753	289.31
298.984	262.31
299.214	278.31
299.445	282.31
299.675	287.31
299.905	283.31
300.136	282.31
300.366	284.31
300.597	285.31
300.827	292.31
301.057	314.31
301.288	310.31
301.518	280.31
301.748	282.31
301.979	298.31
302.209	289.31
302.439	301.31
302.669	312.31
302.9	304.31
303.13	286.31
303.36	300.31
303.59	300.31
303.82	311.31
304.051	319.31
304.281	297.31
304.511	286.31
304.741	282.31
304.971	276.31
305.201	293.31
305.431	307.31
305.661	308.31
305.891	308.31
306.121	294.31
306.352	296.31
306.582	307.31
306.812	299.31
307.042	299.31
307.272	298.31
307.502	304.31
307.731	319.31
307.961	293.31
308.191	308.31
308.421	286.31
308.651	312.31
308.881	308.31
309.111	309.31
309.341	296.31
309.571	300.31
309.8	313.31
310.03	325.31
310.26	318.31
310.49	322.31
310.72	329.31
310.949	310.31
311.179	314.31
311.409	322.31
311.639	331.31
311.868	328.31
312.098	331.31
312.328	323.31
312.557	358.31
312.787	338.31
313.017	346.31
313.246	319.31
313.476	320.31
313.706	331.31
313.935	331.31
314.165	346.31
314.394	332.31
314.624	350.31
314.853	332.31
315.083	322.31
315.312	338.31
315.542	328.31
315.771	332.31
316.001	308.31
316.23	307.31
316.46	329.31
316.689	336.31
316.919	334.31
317.148	338.31
317.377	338.31
317.607	331.31
317.836	338.31
318.065	338.31
318.295	325.31
318.524	324.31
318.753	331.31
318.983	346.31
319.212	328.31
319.441	334.31
319.67	335.31
319.9	342.31
320.129	339.31
320.358	340.31
320.587	309.31
320.816	329.31
321.046	332.31
321.275	337.31
321.504	321.31
321.733	321.31
321.962	339.31
322.191	332.31
322.42	354.31
322.649	346.31
322.878	363.31
323.108	371.31
323.337	372.31
323.566	391.31
323.795	400.31
324.024	434.31
324.253	479.31
324.482	644.31
324.71	920.31
324.939	1250.31
325.168	1010.31
325.397	562.31
325.626	451.31
325.855	414.31
326.084	387.31
326.313	406.31
326.542	381.31
326.77	403.31
326.999	459.31
327.228	600.31
327.457	856.31
327.686	940.31
327.914	654.31
328.143	495.31
328.372	443.31
328.6	435.31
328.829	430.31
329.058	427.31
329.287	449.31
329.515	436.31
329.744	398.31
329.972	401.31
330.201	439.31
330.43	441.31
330.658	438.31
330.887	466.31
331.115	456.31
331.344	400.31
331.572	373.31
331.801	413.31
332.03	403.31
332.258	400.31
332.486	389.31
332.715	392.31
332.943	405.31
333.172	415.31
333.4	401.31
333.629	415.31
333.857	447.31
334.085	442.31
334.314	445.31
334.542	471.31
334.771	463.31
334.999	456.31
335.227	396.31
335.455	427.31
335.684	396.31
335.912	404.31
336.14	386.31
336.369	385.31
336.597	397.31
336.825	409.31
337.053	397.31
337.281	401.31
337.51	389.31
337.738	397.31
337.966	374.31
338.194	370.31
338.422	384.31
338.65	361.31
338.878	372.31
339.106	386.31
339.334	378.31
339.562	376.31
339.79	370.31
340.018	383.31
340.246	353.31
340.474	379.31
340.702	375.31
340.93	373.31
341.158	379.31
341.386	356.31
341.614	371.31
341.842	370.31
342.07	372.31
342.298	385.31
342.526	360.31
342.754	375.31
342.981	372.31
343.209	359.31
343.437	364.31
343.665	380.31
343.893	402.31
344.12	417.31
344.348	390.31
344.576	402.31
344.804	372.31
345.031	381.31
345.259	388.31
345.487	376.31
345.714	360.31
345.942	347.31
346.17	347.31
346.397	356.31
346.625	354.31
346.853	348.31
347.08	351.31
347.308	347.31
347.535	331.31
347.763	354.31
347.99	363.31
348.218	371.31
348.445	345.31
348.673	336.31
348.9	342.31
349.128	341.31
349.355	315.31
349.583	353.31
349.81	338.31
350.037	338.31
350.265	346.31
350.492	363.31
350.72	341.31
350.947	335.31
351.174	348.31
351.402	348.31
351.629	364.31
351.856	342.31
352.083	344.31
352.311	367.31
352.538	362.31
352.765	348.31
352.992	342.31
353.22	339.31
353.447	336.31
353.674	343.31
353.901	337.31
354.128	334.31
354.355	333.31
354.583	333.31
354.81	329.31
355.037	335.31
355.264	334.31
355.491	336.31
355.718	341.31
355.945	330.31
356.172	336.31
356.399	330.31
356.626	328.31
356.853	329.31
357.08	307.31
357.307	347.31
357.534	338.31
357.761	342.31
357.988	340.31
358.215	325.31
358.441	322.31
358.668	317.31
358.895	322.31
359.122	335.31
359.349	340.31
359.576	344.31
359.802	354.31
360.029	372.31
360.256	386.31
360.483	344.31
360.709	335.31
360.936	342.31
361.163	340.31
361.39	337.31
361.616	343.31
361.843	322.31
362.07	347.31
362.296	346.31
362.523	364.31
362.749	344.31
362.976	349.31
363.203	336.31
363.429	318.31
363.656	351.31
363.882	348.31
364.109	336.31
364.335	336.31
364.562	356.31
364.788	328.31
365.015	336.31
365.241	323.31
365.468	335.31
365.694	357.31
365.92	320.31
366.147	328.31
366.373	324.31
366.599	330.31
366.826	336.31
367.052	321.31
367.278	326.31
367.505	346.31
367.731	349.31
367.957	344.31
368.184	344.31
368.41	340.31
368.636	334.31
368.862	358.31
369.089	334.31
369.315	352.31
369.541	340.31
369.767	330.31
369.993	334.31
370.219	321.31
370.445	327.31
370.672	339.31
370.898	348.31
371.124	331.31
371.35	340.31
371.576	335.31
371.802	344.31
372.028	356.31
372.254	343.31
372.48	324.31
372.706	355.31
372.932	342.31
373.158	350.31
373.384	360.31
373.61	333.31
373.835	337.31
374.061	347.31
374.287	343.31
374.513	355.31
374.739	381.31
374.965	361.31
375.191	370.31
375.416	360.31
375.642	364.31
375.868	360.31
376.094	346.31
376.319	318.31
376.545	347.31
376.771	330.31
376.997	330.31
377.222	323.31
377.448	324.31
377.674	338.31
377.899	331.31
378.125	337.31
378.35	317.31
378.576	335.31
378.802	339.31
379.027	327.31
379.253	326.31
379.478	322.31
379.704	331.31
379.929	357.31
380.155	330.31
380.38	340.31
380.606	336.31
380.831	336.31
381.057	351.31
381.282	340.31
381.507	330.31
381.733	346.31
381.958	357.31
382.184	340.31
382.409	358.31
382.634	348.31
382.86	362.31
383.085	348.31
383.31	349.31
383.535	370.31
383.761	365.31
383.986	351.31
384.211	365.31
384.436	370.31
384.662	367.31
384.887	390.31
385.112	383.31
385.337	363.31
385.562	374.31
385.787	364.31
386.013	382.31
386.238	390.31
386.463	379.31
386.688	368.31
386.913	376.31
387.138	368.31
387.363	382.31
387.588	370.31
387.813	376.31
388.038	374.31
388.263	382.31
388.488	400.31
388.713	392.31
388.938	378.31
389.163	375.31
389.387	357.31
389.612	359.31
389.837	361.31
390.062	367.31
390.287	368.31
390.512	366.31
390.736	355.31
390.961	390.31
391.186	378.31
391.411	374.31
391.636	391.31
391.86	406.31
392.085	407.31
392.31	389.31
392.534	401.31
392.759	400.31
392.984	392.31
393.208	370.31
393.433	385.31
393.658	384.31
393.882	385.31
394.107	371.31
394.331	380.31
394.556	371.31
394.78	382.31
395.005	401.31
395.229	388.31
395.454	402.31
395.678	406.31
395.903	416.31
396.127	411.31
396.352	399.31
396.576	377.31
396.801	378.31
397.025	384.31
397.249	396.31
397.474	424.31
397.698	398.31
397.922	420.31
398.147	430.31
398.371	426.31
398.595	439.31
398.82	429.31
399.044	467.31
399.268	491.31
399.492	531.31
399.717	567.31
399.941	562.31
400.165	559.31
400.389	534.31
400.613	486.31
400.837	472.31
401.062	472.31
401.286	466.31
401.51	422.31
401.734	424.31
401.958	455.31
402.182	447.31
402.406	462.31
402.63	457.31
402.854	466.31
403.078	448.31
403.302	475.31
403.526	471.31
403.75	492.31
403.974	463.31
404.198	484.31
404.422	498.31
404.645	472.31
404.869	481.31
405.093	512.31
405.317	536.31
405.541	532.31
405.765	516.31
405.988	502.31
406.212	495.31
406.436	490.31
406.66	496.31
406.883	485.31
407.107	513.31
407.331	550.31
407.555	582.31
407.778	581.31
408.002	552.31
408.226	518.31
408.449	490.31
408.673	470.31
408.896	498.31
409.12	508.31
409.344	504.31
409.567	491.31
409.791	471.31
410.014	455.31
410.238	455.31
410.461	471.31
410.685	465.31
410.908	473.31
411.132	492.31
411.355	512.31
411.578	507.31
411.802	476.31
412.025	438.31
412.249	462.31
412.472	474.31
412.695	505.31
412.919	487.31
413.142	466.31
413.365	455.31
413.589	443.31
413.812	426.31
414.035	444.31
414.258	424.31
414.482	452.31
414.705	439.31
414.928	436.31
415.151	420.31
415.374	420.31
415.597	430.31
415.821	426.31
416.044	419.31
416.267	442.31
416.49	407.31
416.713	438.31
416.936	436.31
417.159	413.31
417.382	430.31
417.605	428.31
417.828	443.31
418.051	452.31
418.274	438.31
418.497	448.31
418.72	432.31
418.943	442.31
419.166	453.31
419.389	478.31
419.611	468.31
419.834	474.31
420.057	460.31
420.28	447.31
420.503	449.31
420.726	430.31
420.948	482.31
421.171	491.31
421.394	487.31
421.617	452.31
421.839	460.31
422.062	429.31
422.285	454.31
422.507	486.31
422.73	541.31
422.953	519.31
423.175	466.31
423.398	455.31
423.621	460.31
423.843	486.31
424.066	483.31
424.288	478.31
424.511	503.31
424.733	532.31
424.956	560.31
425.178	532.31
425.401	538.31
425.623	547.31
425.846	487.31
426.068	470.31
426.291	461.31
426.513	455.31
426.735	477.31
426.958	485.31
427.18	531.31
427.402	623.31
427.625	650.31
427.847	570.31
428.069	491.31
428.292	459.31
428.514	435.31
428.736	438.31
428.958	431.31
429.181	404.31
429.403	416.31
429.625	400.31
429.847	446.31
430.069	476.31
430.292	488.31
430.514	438.31
430.736	408.31
430.958	412.31
431.18	414.31
431.402	406.31
431.624	409.31
431.846	415.31
432.068	403.31
432.29	405.31
432.512	414.31
432.734	420.31
432.956	415.31
433.178	409.31
433.4	399.31
433.622	418.31
433.844	406.31
434.066	419.31
434.287	412.31
434.509	434.31
434.731	431.31
434.953	445.31
435.175	443.31
435.397	468.31
435.618	446.31
435.84	484.31
436.062	540.31
436.284	566.31
436.505	484.31
436.727	445.31
436.949	428.31
437.17	422.31
437.392	410.31
437.614	453.31
437.835	433.31
438.057	503.31
438.278	573.31
438.5	569.31
438.721	586.31
438.943	576.31
439.165	464.31
439.386	445.31
439.608	462.31
439.829	461.31
440.05	485.31
440.272	482.31
440.493	462.31
440.715	451.31
440.936	431.31
441.158	447.31
441.379	427.31
441.6	423.31
441.822	465.31
442.043	490.31
442.264	543.31
442.486	546.31
442.707	495.31
442.928	464.31
443.149	482.31
443.371	483.31
443.592	524.31
443.813	555.31
444.034	592.31
444.255	525.31
444.476	495.31
444.698	489.31
444.919	492.31
445.14	620.31
445.361	556.31
445.582	503.31
445.803	516.31
446.024	606.31
446.245	588.31
446.466	527.31
446.687	460.31
446.908	436.31
447.129	444.31
447.35	427.31
447.571	424.31
447.792	415.31
448.013	412.31
448.234	430.31
448.455	441.31
448.675	538.31
448.896	559.31
449.117	516.31
449.338	474.31
449.559	557.31
449.779	586.31
450	496.31
450.221	444.31
450.442	412.31
450.662	398.31
450.883	419.31
451.104	426.31
451.324	425.31
451.545	379.31
451.766	375.31
451.986	378.31
452.207	382.31
452.428	403.31
452.648	377.31
452.869	366.31
453.089	381.31
453.31	382.31
453.53	398.31
453.751	360.31
453.971	366.31
454.192	395.31
454.412	388.31
454.633	368.31
454.853	376.31
455.073	375.31
455.294	375.31
455.514	401.31
455.734	411.31
455.955	361.31
456.175	359.31
456.395	365.31
456.616	362.31
456.836	357.31
457.056	349.31
457.276	339.31
457.497	366.31
457.717	373.31
457.937	361.31
458.157	370.31
458.377	386.31
458.598	387.31
458.818	428.31
459.038	464.31
459.258	480.31
459.478	454.31
459.698	427.31
459.918	420.31
460.138	415.31
460.358	440.31
460.578	416.31
460.798	422.31
461.018	440.31
461.238	429.31
461.458	443.31
461.678	454.31
461.898	428.31
462.118	436.31
462.338	437.31
462.558	464.31
462.777	475.31
462.997	490.31
463.217	506.31
463.437	510.31
463.657	479.31
463.876	477.31
464.096	476.31
464.316	489.31
464.536	476.31
464.755	481.31
464.975	468.31
465.195	471.31
465.414	509.31
465.634	434.31
465.854	430.31
466.073	414.31
466.293	408.31
466.512	386.31
466.732	393.31
466.951	399.31
467.171	387.31
467.391	393.31
467.61	384.31
467.829	418.31
468.049	422.31
468.268	379.31
468.488	388.31
468.707	386.31
468.927	386.31
469.146	392.31
469.365	398.31
469.585	388.31
469.804	396.31
470.023	386.31
470.243	401.31
470.462	407.31
470.681	415.31
470.901	405.31
471.12	410.31
471.339	406.31
471.558	404.31
471.777	395.31
471.997	400.31
472.216	408.31
472.435	412.31
472.654	405.31
472.873	399.31
473.092	375.31
473.311	393.31
473.53	382.31
473.749	390.31
473.968	417.31
474.187	478.31
474.406	494.31
474.625	434.31
474.844	420.31
475.063	393.31
475.282	380.31
475.501	406.31
475.72	397.31
475.939	388.31
476.158	408.31
476.377	407.31
476.596	405.31
476.814	406.31
477.033	407.31
477.252	407.31
477.471	410.31
477.69	422.31
477.908	437.31
478.127	433.31
478.346	448.31
478.564	431.31
478.783	457.31
479.002	459.31
479.22	466.31
479.439	458.31
479.658	476.31
479.876	464.31
480.095	490.31
480.313	500.31
480.532	478.31
480.751	476.31
480.969	482.31
481.188	538.31
481.406	538.31
481.624	491.31
481.843	471.31
482.061	459.31
482.28	463.31
482.498	446.31
482.717	438.31
482.935	440.31
483.153	458.31
483.372	449.31
483.59	414.31
483.808	450.31
484.027	474.31
484.245	444.31
484.463	469.31
484.681	468.31
484.9	441.31
485.118	439.31
485.336	485.31
485.554	463.31
485.772	436.31
485.99	473.31
486.209	476.31
486.427	485.31
486.645	479.31
486.863	496.31
487.081	464.31
487.299	478.31
487.517	461.31
487.735	457.31
487.953	493.31
488.171	468.31
488.389	488.31
488.607	459.31
488.825	474.31
489.043	487.31
489.261	501.31
489.479	479.31
489.696	471.31
489.914	500.31
490.132	500.31
490.35	484.31
490.568	514.31
490.786	526.31
491.003	540.31
491.221	525.31
491.439	543.31
491.657	559.31
491.874	572.31
492.092	565.31
492.31	540.31
492.527	558.31
492.745	581.31
492.963	586.31
493.18	556.31
493.398	574.31
493.615	578.31
493.833	581.31
494.05	567.31
494.268	567.31
494.485	580.31
494.703	566.31
494.92	551.31
495.138	586.31
495.355	584.31
495.573	564.31
495.79	582.31
496.008	552.31
496.225	534.31
496.442	563.31
496.66	573.31
496.877	576.31
497.094	582.31
497.312	592.31
497.529	605.31
497.746	602.31
497.963	628.31
498.181	639.31
498.398	663.31
498.615	670.31
498.832	686.31
499.049	700.31
499.267	730.31
499.484	774.31
499.701	810.31
499.918	860.31
500.135	955.31
500.352	978.31
500.569	1012.31
500.786	986.31
501.003	962.31
501.22	895.31
501.437	848.31
501.654	816.31
501.871	775.31
502.088	734.31
502.305	700.31
502.522	678.31
502.739	642.31
502.956	655.31
503.172	629.31
503.389	596.31
503.606	593.31
503.823	612.31
504.04	600.31
504.256	588.31
504.473	603.31
504.69	585.31
504.907	591.31
505.123	575.31
505.34	571.31
505.557	549.31
505.773	574.31
505.99	527.31
506.207	525.31
506.423	532.31
506.64	522.31
506.856	538.31
507.073	517.31
507.289	511.31
507.506	493.31
507.722	506.31
507.939	507.31
508.155	503.31
508.372	489.31
508.588	513.31
508.805	492.31
509.021	485.31
509.238	487.31
509.454	499.31
509.67	486.31
509.887	468.31
510.103	484.31
510.319	502.31
510.536	540.31
510.752	785.31
510.968	666.31
511.184	481.31
511.401	475.31
511.617	459.31
511.833	439.31
512.049	462.31
512.265	461.31
512.481	475.31
512.698	438.31
512.914	474.31
513.13	464.31
513.346	451.31
513.562	461.31
513.778	454.31
513.994	439.31
514.21	476.31
514.426	462.31
514.642	489.31
514.858	526.31
515.074	517.31
515.29	593.31
515.506	820.31
515.721	692.31
515.937	544.31
516.153	500.31
516.369	476.31
516.585	515.31
516.801	505.31
517.016	497.31
517.232	503.31
517.448	519.31
517.664	520.31
517.879	554.31
518.095	534.31
518.311	546.31
518.527	503.31
518.742	511.31
518.958	496.31
519.173	474.31
519.389	472.31
519.605	441.31
519.82	472.31
520.036	475.31
520.251	478.31
520.467	490.31
520.682	498.31
520.898	491.31
521.113	514.31
521.329	491.31
521.544	564.31
521.76	639.31
521.975	1009.31
522.19	966.31
522.406	576.31
522.621	484.31
522.836	444.31
523.052	450.31
523.267	425.31
523.482	401.31
523.698	427.31
523.913	418.31
524.128	422.31
524.343	395.31
524.559	404.31
524.774	404.31
524.989	408.31
525.204	422.31
525.419	405.31
525.634	376.31
525.849	406.31
526.064	396.31
526.28	398.31
526.495	389.31
526.71	389.31
526.925	394.31
527.14	390.31
527.355	386.31
527.57	365.31
527.785	380.31
527.999	400.31
528.214	367.31
528.429	397.31
528.644	402.31
528.859	380.31
529.074	402.31
529.289	403.31
529.503	447.31
529.718	432.31
529.933	389.31
530.148	399.31
530.363	391.31
530.577	367.31
530.792	371.31
531.007	386.31
531.221	377.31
531.436	372.31
531.651	373.31
531.865	378.31
532.08	360.31
532.295	366.31
532.509	379.31
532.724	372.31
532.938	373.31
533.153	360.31
533.367	382.31
533.582	375.31
533.796	394.31
534.011	380.31
534.225	379.31
534.44	358.31
534.654	388.31
534.868	360.31
535.083	388.31
535.297	364.31
535.511	392.31
535.726	374.31
535.94	380.31
536.154	388.31
536.369	389.31
536.583	363.31
536.797	354.31
537.011	367.31
537.225	368.31
537.44	366.31
537.654	372.31
537.868	346.31
538.082	349.31
538.296	342.31
538.51	363.31
538.724	392.31
538.938	350.31
539.153	364.31
539.367	356.31
539.581	377.31
539.795	355.31
540.009	363.31
540.222	367.31
540.436	358.31
540.65	376.31
540.864	377.31
541.078	361.31
541.292	370.31
541.506	364.31
541.72	363.31
541.934	359.31
542.147	367.31
542.361	358.31
542.575	362.31
542.789	374.31
543.002	360.31
543.216	374.31
543.43	373.31
543.644	368.31
543.857	351.31
544.071	367.31
544.285	360.31
544.498	375.31
544.712	396.31
544.925	377.31
545.139	363.31
545.352	355.31
545.566	367.31
545.779	381.31
545.993	402.31
546.206	370.31
546.42	379.31
546.633	382.31
546.847	379.31
547.06	363.31
547.274	362.31
547.487	371.31
547.7	379.31
547.914	349.31
548.127	366.31
548.34	364.31
548.554	372.31
548.767	361.31
548.98	370.31
549.193	365.31
549.407	350.31
549.62	360.31
549.833	370.31
550.046	370.31
550.259	346.31
550.473	335.31
550.686	356.31
550.899	355.31
551.112	345.31
551.325	352.31
551.538	351.31
551.751	354.31
551.964	345.31
552.177	374.31
552.39	358.31
552.603	376.31
552.816	377.31
553.029	374.31
553.242	374.31
553.455	395.31
553.667	382.31
553.88	376.31
554.093	377.31
554.306	384.31
554.519	382.31
554.732	366.31
554.944	360.31
555.157	362.31
555.37	329.31
555.583	340.31
555.795	347.31
556.008	341.31
556.221	322.31
556.433	330.31
556.646	323.31
556.859	330.31
557.071	318.31
557.284	324.31
557.496	312.31
557.709	336.31
557.921	314.31
558.134	329.31
558.346	328.31
558.559	308.31
558.771	323.31
558.984	332.31
559.196	320.31
559.409	306.31
559.621	318.31
559.833	299.31
560.046	319.31
560.258	311.31
560.47	314.31
560.683	299.31
560.895	318.31
561.107	309.31
561.32	315.31
561.532	310.31
561.744	306.31
561.956	295.31
562.168	326.31
562.381	323.31
562.593	329.31
562.805	330.31
563.017	321.31
563.229	302.31
563.441	307.31
563.653	322.31
563.865	312.31
564.077	319.31
564.289	332.31
564.501	331.31
564.713	337.31
564.925	331.31
565.137	347.31
565.349	328.31
565.561	366.31
565.773	363.31
565.985	365.31
566.197	384.31
566.408	391.31
566.62	407.31
566.832	448.31
567.044	450.31
567.255	435.31
567.467	430.31
567.679	462.31
567.891	490.31
568.102	486.31
568.314	474.31
568.526	430.31
568.737	408.31
568.949	403.31
569.161	367.31
569.372	364.31
569.584	330.31
569.795	343.31
570.007	350.31
570.218	333.31
570.43	345.31
570.641	314.31
570.853	325.31
571.064	316.31
571.276	318.31
571.487	317.31
571.698	309.31
571.91	306.31
572.121	306.31
572.333	300.31
572.544	293.31
572.755	278.31
572.966	290.31
573.178	279.31
573.389	283.31
573.6	284.31
573.811	290.31
574.023	285.31
574.234	294.31
574.445	279.31
574.656	253.31
574.867	266.31
575.078	289.31
575.289	269.31
575.501	268.31
575.712	288.31
575.923	274.31
576.134	254.31
576.345	251.31
576.556	273.31
576.767	278.31
576.978	270.31
577.188	279.31
577.399	259.31
577.61	258.31
577.821	259.31
578.032	251.31
578.243	273.31
578.454	383.31
578.665	318.31
578.875	272.31
579.086	265.31
579.297	262.31
579.508	259.31
579.718	234.31
579.929	256.31
580.14	247.31
580.35	260.31
580.561	269.31
580.772	281.31
580.982	227.31
581.193	242.31
581.403	262.31
581.614	266.31
581.825	246.31
582.035	256.31
582.246	246.31
582.456	242.31
582.667	267.31
582.877	246.31
583.087	230.31
583.298	248.31
583.508	262.31
583.719	223.31
583.929	252.31
584.139	238.31
584.35	265.31
584.56	249.31
584.77	256.31
584.981	254.31
585.191	253.31
585.401	244.31
585.611	250.31
585.821	239.31
586.032	234.31
586.242	247.31
586.452	248.31
586.662	233.31
586.872	231.31
587.082	261.31
587.292	240.31
587.502	235.31
587.713	242.31
587.923	248.31
588.133	224.31
588.343	233.31
588.553	231.31
588.762	242.31
588.972	253.31
589.182	264.31
589.392	238.31
589.602	251.31
589.812	242.31
590.022	240.31
590.232	249.31
590.441	260.31
590.651	236.31
590.861	266.31
591.071	248.31
591.281	253.31
591.49	260.31
591.7	226.31
591.91	249.31
592.119	254.31
592.329	267.31
592.539	268.31
592.748	276.31
592.958	280.31
593.167	263.31
593.377	291.31
593.587	273.31
593.796	272.31
594.006	299.31
594.215	307.31
594.424	287.31
594.634	288.31
594.843	284.31
595.053	264.31
595.262	278.31
595.472	270.31
595.681	247.31
595.89	233.31
596.1	244.31
596.309	238.31
596.518	246.31
596.727	221.31
596.937	251.31
597.146	236.31
597.355	238.31
597.564	228.31
597.774	237.31
597.983	243.31
598.192	234.31
598.401	226.31
598.61	224.31
598.819	217.31
599.028	210.31
599.237	224.31
599.446	243.31
599.655	222.31
599.864	204.31
600.073	216.31
600.282	233.31
600.491	222.31
600.7	218.31
600.909	212.31
601.118	215.31
601.327	221.31
601.536	219.31
601.745	212.31
601.953	231.31
602.162	206.31
602.371	211.31
602.58	226.31
602.789	210.31
602.997	206.31
603.206	216.31
603.415	218.31
603.623	216.31
603.832	219.31
604.041	212.31
604.249	203.31
604.458	200.31
604.666	195.31
604.875	203.31
605.084	210.31
605.292	198.31
605.501	207.31
605.709	205.31
605.918	201.31
606.126	218.31
606.334	210.31
606.543	221.31
606.751	212.31
606.96	214.31
607.168	210.31
607.376	203.31
607.585	206.31
607.793	208.31
608.001	202.31
608.21	217.31
608.418	202.31
608.626	226.31
608.834	231.31
609.043	210.31
609.251	202.31
609.459	207.31
609.667	220.31
609.875	215.31
610.083	220.31
610.291	210.31
610.499	212.31
610.707	206.31
610.916	217.31
611.124	209.31
611.332	213.31
611.54	221.31
611.748	217.31
611.955	233.31
612.163	212.31
612.371	222.31
612.579	212.31
612.787	206.31
612.995	186.31
613.203	210.31
613.411	196.31
613.618	201.31
613.826	204.31
614.034	187.31
614.242	207.31
614.449	201.31
614.657	207.31
614.865	202.31
615.072	209.31
615.28	191.31
615.488	198.31
615.695	197.31
615.903	203.31
616.111	200.31
616.318	206.31
616.526	216.31
616.733	201.31
616.941	207.31
617.148	224.31
617.356	219.31
617.563	205.31
617.771	208.31
617.978	192.31
618.185	203.31
618.393	216.31
618.6	224.31
618.807	201.31
619.015	205.31
619.222	203.31
619.429	204.31
619.637	194.31
619.844	206.31
620.051	191.31
620.258	207.31
620.466	208.31
620.673	195.31
620.88	214.31
621.087	176.31
621.294	184.31
621.501	185.31
621.708	199.31
621.915	198.31
622.122	205.31
622.329	203.31
622.536	207.31
622.743	202.31
622.95	185.31
623.157	192.31
623.364	197.31
623.571	190.31
623.778	178.31
623.985	192.31
624.192	204.31
624.399	190.31
624.606	182.31
624.812	192.31
625.019	178.31
625.226	183.31
625.433	180.31
625.639	184.31
625.846	176.31
626.053	178.31
626.259	175.31
626.466	190.31
626.673	189.31
626.879	191.31
627.086	175.31
627.293	178.31
627.499	167.31
627.706	180.31
627.912	194.31
628.119	199.31
628.325	166.31
628.532	191.31
628.738	182.31
628.945	184.31
629.151	168.31
629.357	183.31
629.564	173.31
629.77	189.31
629.976	178.31
630.183	163.31
630.389	167.31
630.595	155.31
630.802	168.31
631.008	160.31
631.214	149.31
631.42	155.31
631.627	160.31
631.833	162.31
632.039	164.31
632.245	162.31
632.451	167.31
632.657	164.31
632.863	182.31
633.069	160.31
633.275	165.31
633.481	165.31
633.688	162.31
633.893	142.31
634.099	167.31
634.305	162.31
634.511	183.31
634.717	157.31
634.923	170.31
635.129	174.31
635.335	168.31
635.541	170.31
635.747	163.31
635.952	170.31
636.158	166.31
636.364	165.31
636.57	175.31
636.775	163.31
636.981	168.31
637.187	158.31
637.392	167.31
637.598	165.31
637.804	147.31
638.009	148.31
638.215	166.31
638.421	174.31
638.626	157.31
638.832	171.31
639.037	164.31
639.243	154.31
639.448	176.31
639.654	154.31
639.859	147.31
640.065	165.31
640.27	155.31
640.475	153.31
640.681	148.31
640.886	166.31
641.091	168.31
641.297	148.31
641.502	149.31
641.707	144.31
641.913	140.31
642.118	156.31
642.323	153.31
642.528	166.31
642.733	165.31
642.939	169.31
643.144	147.31
643.349	158.31
643.554	155.31
643.759	145.31
643.964	139.31
644.169	143.31
644.374	164.31
644.579	157.31
644.784	141.31
644.989	145.31
645.194	142.31
645.399	154.31
645.604	153.31
645.809	162.31
646.014	132.31
646.219	163.31
646.423	155.31
646.628	142.31
646.833	157.31
647.038	141.31
647.243	136.31
647.447	142.31
647.652	159.31
647.857	147.31
648.062	161.31
648.266	161.31
648.471	164.31
648.676	156.31
648.88	163.31
649.085	147.31
649.289	141.31
649.494	152.31
649.698	159.31
649.903	163.31
650.107	161.31
650.312	150.31
650.516	147.31
650.721	152.31
650.925	140.31
651.13	152.31
651.334	140.31
651.539	141.31
651.743	148.31
651.947	133.31
652.152	160.31
652.356	146.31
652.56	151.31
652.764	141.31
652.969	130.31
653.173	132.31
653.377	143.31
653.581	122.31
653.785	133.31
653.99	130.31
654.194	119.31
654.398	120.31
654.602	136.31
654.806	132.31
655.01	147.31
655.214	134.31
655.418	110.31
655.622	133.31
655.826	146.31
656.03	127.31
656.234	134.31
656.438	139.31
656.642	142.31
656.846	139.31
657.049	125.31
657.253	128.31
657.457	140.31
657.661	127.31
657.865	121.31
658.068	115.31
658.272	110.31
658.476	110.31
658.68	107.31
658.883	114.31
659.087	109.31
659.291	87.31
659.494	109.31
659.698	95.31
659.901	111.31
660.105	96.31
660.309	88.31
660.512	97.31
660.716	90.31
660.919	96.31
661.123	92.31
661.326	103.31
661.53	93.31
661.733	78.31
661.936	85.31
662.14	83.31
662.343	94.31
662.546	80.31
662.75	102.31
662.953	98.31
663.156	81.31
663.36	82.31
663.563	70.31
663.766	83.31
663.969	77.31
664.173	88.31
664.376	95.31
664.579	80.31
664.782	79.31
664.985	85.31
665.188	94.31
665.391	92.31
665.594	88.31
665.797	83.31
666	75.31
666.203	88.31
666.406	91.31
666.609	87.31
666.812	88.31
667.015	83.31
667.218	77.31
667.421	87.31
667.624	87.31
667.827	91.31
668.03	99.31
668.232	78.31
668.435	79.31
668.638	80.31
668.841	78.31
669.043	94.31
669.246	85.31
669.449	87.31
669.651	90.31
669.854	89.31
670.057	81.31
670.259	94.31
670.462	83.31
670.665	66.31
670.867	83.31
671.07	84.31
671.272	92.31
671.475	104.31
671.677	92.31
671.88	92.31
672.082	99.31
672.284	79.31
672.487	91.31
672.689	75.31
672.892	79.31
