Data from 1969.PennyLincolnUp.Lamp.En5.5.200Scan.071719.P1._HRD10591_14-55-21-973.txt Node
Date: Thu Jul 18 14:55:21 EDT 2019
User: cochatt
Spectrometer: HR+D1059
Trigger mode: 1
Integration Time (sec): 1.000000E-1
Scans to average: 1
Electric dark correction enabled: true
Nonlinearity correction enabled: false
Boxcar width: 0
XAxis mode: Wavelengths
Number of Pixels in Spectrum: 2048
>>>>>Begin Spectral Data<<<<<
223.165	-10.44
223.4	-10.44
223.635	-10.44
223.869	-19.44
224.104	-7.44
224.338	-16.44
224.573	-9.44
224.808	-16.44
225.042	-18.44
225.277	-2.44
225.511	12.56
225.746	-4.44
225.98	0.56
226.215	2.56
226.449	12.56
226.683	25.56
226.918	17.56
227.152	33.56
227.387	40.56
227.621	56.56
227.856	49.56
228.09	40.56
228.324	44.56
228.559	52.56
228.793	69.56
229.027	76.56
229.262	89.56
229.496	92.56
229.73	124.56
229.964	114.56
230.199	104.56
230.433	95.56
230.667	105.56
230.901	112.56
231.136	105.56
231.37	97.56
231.604	99.56
231.838	104.56
232.072	107.56
232.306	88.56
232.541	102.56
232.775	113.56
233.009	121.56
233.243	109.56
233.477	102.56
233.711	105.56
233.945	114.56
234.179	126.56
234.413	116.56
234.647	108.56
234.881	114.56
235.115	111.56
235.349	98.56
235.583	112.56
235.817	111.56
236.051	120.56
236.285	118.56
236.519	107.56
236.753	107.56
236.987	125.56
237.221	148.56
237.455	161.56
237.689	154.56
237.922	119.56
238.156	120.56
238.39	118.56
238.624	111.56
238.858	131.56
239.091	120.56
239.325	121.56
239.559	125.56
239.793	109.56
240.027	101.56
240.26	118.56
240.494	124.56
240.728	146.56
240.961	127.56
241.195	117.56
241.429	122.56
241.662	133.56
241.896	125.56
242.13	117.56
242.363	131.56
242.597	136.56
242.83	144.56
243.064	136.56
243.298	137.56
243.531	141.56
243.765	128.56
243.998	116.56
244.232	145.56
244.465	136.56
244.699	146.56
244.932	136.56
245.166	129.56
245.399	124.56
245.633	134.56
245.866	129.56
246.099	148.56
246.333	143.56
246.566	125.56
246.8	137.56
247.033	150.56
247.266	152.56
247.5	154.56
247.733	136.56
247.966	155.56
248.2	156.56
248.433	142.56
248.666	156.56
248.899	155.56
249.133	176.56
249.366	165.56
249.599	159.56
249.832	162.56
250.066	167.56
250.299	156.56
250.532	170.56
250.765	170.56
250.998	201.56
251.231	190.56
251.465	175.56
251.698	145.56
251.931	174.56
252.164	184.56
252.397	162.56
252.63	177.56
252.863	191.56
253.096	165.56
253.329	184.56
253.562	184.56
253.795	181.56
254.028	168.56
254.261	180.56
254.494	180.56
254.727	204.56
254.96	222.56
255.193	209.56
255.426	192.56
255.659	198.56
255.892	187.56
256.124	209.56
256.357	197.56
256.59	201.56
256.823	184.56
257.056	186.56
257.289	171.56
257.521	188.56
257.754	189.56
257.987	192.56
258.22	182.56
258.452	190.56
258.685	186.56
258.918	177.56
259.151	178.56
259.383	195.56
259.616	204.56
259.849	201.56
260.081	196.56
260.314	208.56
260.547	202.56
260.779	198.56
261.012	189.56
261.244	188.56
261.477	202.56
261.71	201.56
261.942	194.56
262.175	209.56
262.407	194.56
262.64	203.56
262.872	206.56
263.105	173.56
263.337	182.56
263.57	188.56
263.802	182.56
264.035	205.56
264.267	203.56
264.499	200.56
264.732	208.56
264.964	182.56
265.197	184.56
265.429	180.56
265.661	194.56
265.894	179.56
266.126	198.56
266.358	191.56
266.591	194.56
266.823	196.56
267.055	222.56
267.287	203.56
267.52	212.56
267.752	212.56
267.984	204.56
268.216	200.56
268.448	205.56
268.681	209.56
268.913	212.56
269.145	211.56
269.377	225.56
269.609	245.56
269.841	225.56
270.073	235.56
270.306	236.56
270.538	268.56
270.77	262.56
271.002	261.56
271.234	252.56
271.466	249.56
271.698	263.56
271.93	262.56
272.162	275.56
272.394	271.56
272.626	247.56
272.858	232.56
273.09	234.56
273.322	236.56
273.553	226.56
273.785	231.56
274.017	231.56
274.249	237.56
274.481	227.56
274.713	221.56
274.945	232.56
275.176	242.56
275.408	234.56
275.64	236.56
275.872	230.56
276.104	254.56
276.335	236.56
276.567	235.56
276.799	249.56
277.031	239.56
277.262	268.56
277.494	283.56
277.726	247.56
277.957	260.56
278.189	260.56
278.421	240.56
278.652	257.56
278.884	236.56
279.115	232.56
279.347	225.56
279.579	242.56
279.81	238.56
280.042	237.56
280.273	242.56
280.505	224.56
280.736	242.56
280.968	231.56
281.199	244.56
281.431	228.56
281.662	248.56
281.894	221.56
282.125	226.56
282.356	257.56
282.588	273.56
282.819	258.56
283.051	254.56
283.282	232.56
283.513	266.56
283.745	252.56
283.976	257.56
284.207	255.56
284.439	252.56
284.67	259.56
284.901	241.56
285.132	260.56
285.364	268.56
285.595	253.56
285.826	251.56
286.057	263.56
286.288	251.56
286.52	249.56
286.751	246.56
286.982	254.56
287.213	261.56
287.444	251.56
287.675	258.56
287.906	250.56
288.138	262.56
288.369	283.56
288.6	265.56
288.831	251.56
289.062	257.56
289.293	257.56
289.524	252.56
289.755	251.56
289.986	270.56
290.217	268.56
290.448	260.56
290.679	266.56
290.91	264.56
291.141	268.56
291.371	257.56
291.602	257.56
291.833	263.56
292.064	270.56
292.295	265.56
292.526	263.56
292.757	246.56
292.987	257.56
293.218	268.56
293.449	258.56
293.68	271.56
293.91	270.56
294.141	265.56
294.372	260.56
294.603	278.56
294.833	297.56
295.064	278.56
295.295	269.56
295.525	271.56
295.756	277.56
295.987	261.56
296.217	279.56
296.448	294.56
296.679	294.56
296.909	271.56
297.14	276.56
297.37	279.56
297.601	271.56
297.831	273.56
298.062	288.56
298.292	275.56
298.523	305.56
298.753	284.56
298.984	303.56
299.214	283.56
299.445	279.56
299.675	295.56
299.905	273.56
300.136	292.56
300.366	282.56
300.597	301.56
300.827	280.56
301.057	300.56
301.288	299.56
301.518	291.56
301.748	292.56
301.979	309.56
302.209	296.56
302.439	312.56
302.669	282.56
302.9	296.56
303.13	298.56
303.36	309.56
303.59	299.56
303.82	288.56
304.051	298.56
304.281	298.56
304.511	297.56
304.741	311.56
304.971	278.56
305.201	280.56
305.431	293.56
305.661	301.56
305.891	285.56
306.121	298.56
306.352	295.56
306.582	300.56
306.812	301.56
307.042	308.56
307.272	303.56
307.502	313.56
307.731	295.56
307.961	312.56
308.191	305.56
308.421	300.56
308.651	315.56
308.881	303.56
309.111	329.56
309.341	309.56
309.571	318.56
309.8	322.56
310.03	312.56
310.26	328.56
310.49	305.56
310.72	332.56
310.949	317.56
311.179	331.56
311.409	322.56
311.639	304.56
311.868	344.56
312.098	328.56
312.328	330.56
312.557	335.56
312.787	354.56
313.017	345.56
313.246	333.56
313.476	329.56
313.706	327.56
313.935	324.56
314.165	341.56
314.394	343.56
314.624	353.56
314.853	338.56
315.083	356.56
315.312	357.56
315.542	334.56
315.771	337.56
316.001	330.56
316.23	323.56
316.46	330.56
316.689	313.56
316.919	334.56
317.148	328.56
317.377	347.56
317.607	343.56
317.836	333.56
318.065	315.56
318.295	328.56
318.524	319.56
318.753	304.56
318.983	309.56
319.212	332.56
319.441	333.56
319.67	338.56
319.9	330.56
320.129	338.56
320.358	321.56
320.587	337.56
320.816	328.56
321.046	341.56
321.275	331.56
321.504	340.56
321.733	356.56
321.962	352.56
322.191	353.56
322.42	364.56
322.649	350.56
322.878	343.56
323.108	361.56
323.337	395.56
323.566	391.56
323.795	388.56
324.024	426.56
324.253	486.56
324.482	641.56
324.71	914.56
324.939	1208.56
325.168	995.56
325.397	560.56
325.626	446.56
325.855	400.56
326.084	393.56
326.313	377.56
326.542	372.56
326.77	421.56
326.999	485.56
327.228	610.56
327.457	804.56
327.686	923.56
327.914	619.56
328.143	477.56
328.372	448.56
328.6	426.56
328.829	422.56
329.058	437.56
329.287	450.56
329.515	418.56
329.744	397.56
329.972	398.56
330.201	424.56
330.43	444.56
330.658	461.56
330.887	467.56
331.115	449.56
331.344	403.56
331.572	408.56
331.801	395.56
332.03	408.56
332.258	385.56
332.486	398.56
332.715	397.56
332.943	402.56
333.172	408.56
333.4	401.56
333.629	426.56
333.857	434.56
334.085	426.56
334.314	462.56
334.542	497.56
334.771	462.56
334.999	427.56
335.227	420.56
335.455	397.56
335.684	424.56
335.912	394.56
336.14	399.56
336.369	373.56
336.597	408.56
336.825	398.56
337.053	392.56
337.281	393.56
337.51	383.56
337.738	385.56
337.966	364.56
338.194	392.56
338.422	380.56
338.65	398.56
338.878	373.56
339.106	361.56
339.334	374.56
339.562	357.56
339.79	363.56
340.018	366.56
340.246	358.56
340.474	348.56
340.702	366.56
340.93	362.56
341.158	365.56
341.386	354.56
341.614	373.56
341.842	358.56
342.07	347.56
342.298	359.56
342.526	366.56
342.754	358.56
342.981	359.56
343.209	365.56
343.437	370.56
343.665	378.56
343.893	408.56
344.12	404.56
344.348	388.56
344.576	368.56
344.804	376.56
345.031	377.56
345.259	369.56
345.487	374.56
345.714	359.56
345.942	357.56
346.17	365.56
346.397	359.56
346.625	338.56
346.853	363.56
347.08	348.56
347.308	359.56
347.535	378.56
347.763	365.56
347.99	376.56
348.218	355.56
348.445	357.56
348.673	348.56
348.9	363.56
349.128	352.56
349.355	356.56
349.583	349.56
349.81	320.56
350.037	345.56
350.265	318.56
350.492	353.56
350.72	352.56
350.947	339.56
351.174	343.56
351.402	365.56
351.629	358.56
351.856	360.56
352.083	352.56
352.311	368.56
352.538	367.56
352.765	364.56
352.992	331.56
353.22	344.56
353.447	352.56
353.674	341.56
353.901	337.56
354.128	333.56
354.355	344.56
354.583	330.56
354.81	337.56
355.037	350.56
355.264	344.56
355.491	329.56
355.718	312.56
355.945	337.56
356.172	328.56
356.399	321.56
356.626	340.56
356.853	327.56
357.08	337.56
357.307	321.56
357.534	330.56
357.761	346.56
357.988	340.56
358.215	322.56
358.441	345.56
358.668	334.56
358.895	334.56
359.122	350.56
359.349	327.56
359.576	329.56
359.802	346.56
360.029	379.56
360.256	366.56
360.483	369.56
360.709	369.56
360.936	356.56
361.163	358.56
361.39	329.56
361.616	324.56
361.843	340.56
362.07	346.56
362.296	347.56
362.523	356.56
362.749	360.56
362.976	344.56
363.203	338.56
363.429	343.56
363.656	344.56
363.882	329.56
364.109	337.56
364.335	346.56
364.562	345.56
364.788	365.56
365.015	338.56
365.241	321.56
365.468	338.56
365.694	354.56
365.92	324.56
366.147	340.56
366.373	348.56
366.599	324.56
366.826	334.56
367.052	331.56
367.278	326.56
367.505	347.56
367.731	325.56
367.957	343.56
368.184	344.56
368.41	335.56
368.636	348.56
368.862	348.56
369.089	352.56
369.315	349.56
369.541	341.56
369.767	351.56
369.993	354.56
370.219	341.56
370.445	330.56
370.672	353.56
370.898	350.56
371.124	350.56
371.35	338.56
371.576	345.56
371.802	335.56
372.028	341.56
372.254	342.56
372.48	355.56
372.706	350.56
372.932	328.56
373.158	336.56
373.384	327.56
373.61	344.56
373.835	358.56
374.061	340.56
374.287	338.56
374.513	364.56
374.739	370.56
374.965	372.56
375.191	357.56
375.416	374.56
375.642	335.56
375.868	348.56
376.094	349.56
376.319	352.56
376.545	348.56
376.771	342.56
376.997	343.56
377.222	336.56
377.448	335.56
377.674	329.56
377.899	342.56
378.125	319.56
378.35	333.56
378.576	322.56
378.802	320.56
379.027	331.56
379.253	338.56
379.478	338.56
379.704	341.56
379.929	348.56
380.155	342.56
380.38	341.56
380.606	333.56
380.831	333.56
381.057	341.56
381.282	326.56
381.507	344.56
381.733	351.56
381.958	353.56
382.184	364.56
382.409	340.56
382.634	352.56
382.86	324.56
383.085	360.56
383.31	366.56
383.535	357.56
383.761	367.56
383.986	351.56
384.211	380.56
384.436	376.56
384.662	375.56
384.887	365.56
385.112	378.56
385.337	366.56
385.562	401.56
385.787	380.56
386.013	383.56
386.238	382.56
386.463	354.56
386.688	384.56
386.913	373.56
387.138	361.56
387.363	362.56
387.588	381.56
387.813	401.56
388.038	379.56
388.263	379.56
388.488	372.56
388.713	368.56
388.938	369.56
389.163	377.56
389.387	386.56
389.612	362.56
389.837	388.56
390.062	373.56
390.287	385.56
390.512	354.56
390.736	388.56
390.961	384.56
391.186	379.56
391.411	382.56
391.636	391.56
391.86	388.56
392.085	403.56
392.31	406.56
392.534	403.56
392.759	388.56
392.984	405.56
393.208	395.56
393.433	406.56
393.658	400.56
393.882	385.56
394.107	382.56
394.331	389.56
394.556	384.56
394.78	401.56
395.005	379.56
395.229	409.56
395.454	414.56
395.678	399.56
395.903	412.56
396.127	422.56
396.352	394.56
396.576	398.56
396.801	405.56
397.025	408.56
397.249	421.56
397.474	418.56
397.698	419.56
397.922	408.56
398.147	420.56
398.371	434.56
398.595	435.56
398.82	438.56
399.044	461.56
399.268	494.56
399.492	530.56
399.717	577.56
399.941	561.56
400.165	544.56
400.389	528.56
400.613	511.56
400.837	472.56
401.062	466.56
401.286	440.56
401.51	413.56
401.734	414.56
401.958	448.56
402.182	462.56
402.406	443.56
402.63	454.56
402.854	444.56
403.078	459.56
403.302	466.56
403.526	464.56
403.75	474.56
403.974	468.56
404.198	477.56
404.422	492.56
404.645	472.56
404.869	474.56
405.093	497.56
405.317	512.56
405.541	518.56
405.765	507.56
405.988	469.56
406.212	500.56
406.436	496.56
406.66	507.56
406.883	489.56
407.107	537.56
407.331	548.56
407.555	601.56
407.778	571.56
408.002	562.56
408.226	514.56
408.449	532.56
408.673	512.56
408.896	514.56
409.12	530.56
409.344	517.56
409.567	474.56
409.791	465.56
410.014	460.56
410.238	455.56
410.461	474.56
410.685	466.56
410.908	471.56
411.132	488.56
411.355	497.56
411.578	485.56
411.802	467.56
412.025	464.56
412.249	477.56
412.472	464.56
412.695	507.56
412.919	481.56
413.142	451.56
413.365	452.56
413.589	459.56
413.812	433.56
414.035	441.56
414.258	425.56
414.482	420.56
414.705	430.56
414.928	427.56
415.151	452.56
415.374	436.56
415.597	448.56
415.821	434.56
416.044	433.56
416.267	428.56
416.49	425.56
416.713	442.56
416.936	429.56
417.159	434.56
417.382	420.56
417.605	423.56
417.828	448.56
418.051	452.56
418.274	439.56
418.497	455.56
418.72	462.56
418.943	445.56
419.166	440.56
419.389	485.56
419.611	445.56
419.834	457.56
420.057	484.56
420.28	452.56
420.503	453.56
420.726	453.56
420.948	461.56
421.171	489.56
421.394	489.56
421.617	434.56
421.839	446.56
422.062	442.56
422.285	453.56
422.507	500.56
422.73	539.56
422.953	505.56
423.175	491.56
423.398	467.56
423.621	474.56
423.843	474.56
424.066	485.56
424.288	466.56
424.511	486.56
424.733	512.56
424.956	532.56
425.178	532.56
425.401	537.56
425.623	541.56
425.846	467.56
426.068	465.56
426.291	453.56
426.513	446.56
426.735	436.56
426.958	482.56
427.18	529.56
427.402	594.56
427.625	613.56
427.847	565.56
428.069	507.56
428.292	475.56
428.514	443.56
428.736	452.56
428.958	426.56
429.181	417.56
429.403	424.56
429.625	415.56
429.847	426.56
430.069	474.56
430.292	453.56
430.514	432.56
430.736	422.56
430.958	412.56
431.18	421.56
431.402	413.56
431.624	409.56
431.846	409.56
432.068	400.56
432.29	402.56
432.512	410.56
432.734	409.56
432.956	422.56
433.178	421.56
433.4	393.56
433.622	426.56
433.844	420.56
434.066	405.56
434.287	398.56
434.509	418.56
434.731	405.56
434.953	416.56
435.175	454.56
435.397	458.56
435.618	459.56
435.84	471.56
436.062	519.56
436.284	562.56
436.505	467.56
436.727	426.56
436.949	411.56
437.17	406.56
437.392	416.56
437.614	406.56
437.835	424.56
438.057	487.56
438.278	545.56
438.5	528.56
438.721	567.56
438.943	570.56
439.165	476.56
439.386	449.56
439.608	447.56
439.829	452.56
440.05	457.56
440.272	472.56
440.493	462.56
440.715	446.56
440.936	437.56
441.158	437.56
441.379	461.56
441.6	446.56
441.822	474.56
442.043	502.56
442.264	542.56
442.486	544.56
442.707	489.56
442.928	490.56
443.149	469.56
443.371	490.56
443.592	516.56
443.813	562.56
444.034	565.56
444.255	520.56
444.476	500.56
444.698	488.56
444.919	501.56
445.14	566.56
445.361	541.56
445.582	506.56
445.803	528.56
446.024	574.56
446.245	565.56
446.466	526.56
446.687	469.56
446.908	441.56
447.129	428.56
447.35	424.56
447.571	418.56
447.792	414.56
448.013	412.56
448.234	412.56
448.455	445.56
448.675	491.56
448.896	557.56
449.117	481.56
449.338	475.56
449.559	533.56
449.779	598.56
450	482.56
450.221	439.56
450.442	411.56
450.662	394.56
450.883	398.56
451.104	418.56
451.324	381.56
451.545	413.56
451.766	397.56
451.986	386.56
452.207	375.56
452.428	384.56
452.648	373.56
452.869	394.56
453.089	392.56
453.31	385.56
453.53	376.56
453.751	384.56
453.971	372.56
454.192	379.56
454.412	382.56
454.633	371.56
454.853	376.56
455.073	386.56
455.294	400.56
455.514	434.56
455.734	431.56
455.955	368.56
456.175	344.56
456.395	348.56
456.616	359.56
456.836	357.56
457.056	372.56
457.276	345.56
457.497	356.56
457.717	350.56
457.937	361.56
458.157	382.56
458.377	378.56
458.598	397.56
458.818	406.56
459.038	463.56
459.258	466.56
459.478	436.56
459.698	408.56
459.918	394.56
460.138	433.56
460.358	441.56
460.578	428.56
460.798	430.56
461.018	440.56
461.238	451.56
461.458	440.56
461.678	426.56
461.898	445.56
462.118	430.56
462.338	456.56
462.558	450.56
462.777	458.56
462.997	497.56
463.217	516.56
463.437	534.56
463.657	504.56
463.876	498.56
464.096	472.56
464.316	477.56
464.536	491.56
464.755	463.56
464.975	465.56
465.195	480.56
465.414	514.56
465.634	464.56
465.854	432.56
466.073	409.56
466.293	410.56
466.512	400.56
466.732	409.56
466.951	406.56
467.171	402.56
467.391	406.56
467.61	395.56
467.829	403.56
468.049	412.56
468.268	421.56
468.488	386.56
468.707	368.56
468.927	362.56
469.146	395.56
469.365	388.56
469.585	380.56
469.804	403.56
470.023	415.56
470.243	424.56
470.462	436.56
470.681	419.56
470.901	413.56
471.12	388.56
471.339	402.56
471.558	404.56
471.777	390.56
471.997	402.56
472.216	396.56
472.435	415.56
472.654	408.56
472.873	396.56
473.092	382.56
473.311	369.56
473.53	392.56
473.749	398.56
473.968	412.56
474.187	455.56
474.406	467.56
474.625	420.56
474.844	410.56
475.063	385.56
475.282	384.56
475.501	415.56
475.72	394.56
475.939	406.56
476.158	402.56
476.377	400.56
476.596	392.56
476.814	421.56
477.033	412.56
477.252	420.56
477.471	416.56
477.69	437.56
477.908	444.56
478.127	417.56
478.346	430.56
478.564	444.56
478.783	465.56
479.002	456.56
479.22	464.56
479.439	478.56
479.658	461.56
479.876	463.56
480.095	478.56
480.313	508.56
480.532	521.56
480.751	473.56
480.969	481.56
481.188	542.56
481.406	535.56
481.624	472.56
481.843	462.56
482.061	465.56
482.28	469.56
482.498	436.56
482.717	425.56
482.935	445.56
483.153	463.56
483.372	450.56
483.59	446.56
483.808	450.56
484.027	430.56
484.245	448.56
484.463	467.56
484.681	460.56
484.9	465.56
485.118	471.56
485.336	469.56
485.554	478.56
485.772	479.56
485.99	478.56
486.209	478.56
486.427	471.56
486.645	467.56
486.863	474.56
487.081	495.56
487.299	484.56
487.517	475.56
487.735	486.56
487.953	484.56
488.171	477.56
488.389	479.56
488.607	504.56
488.825	467.56
489.043	476.56
489.261	489.56
489.479	485.56
489.696	492.56
489.914	470.56
490.132	496.56
490.35	486.56
490.568	508.56
490.786	514.56
491.003	502.56
491.221	535.56
491.439	540.56
491.657	540.56
491.874	534.56
492.092	528.56
492.31	556.56
492.527	550.56
492.745	549.56
492.963	561.56
493.18	548.56
493.398	554.56
493.615	581.56
493.833	550.56
494.05	562.56
494.268	562.56
494.485	545.56
494.703	590.56
494.92	579.56
495.138	561.56
495.355	570.56
495.573	570.56
495.79	567.56
496.008	550.56
496.225	577.56
496.442	564.56
496.66	582.56
496.877	562.56
497.094	559.56
497.312	581.56
497.529	583.56
497.746	596.56
497.963	602.56
498.181	632.56
498.398	630.56
498.615	656.56
498.832	678.56
499.049	705.56
499.267	743.56
499.484	774.56
499.701	826.56
499.918	845.56
500.135	948.56
500.352	989.56
500.569	1015.56
500.786	1008.56
501.003	975.56
501.22	908.56
501.437	858.56
501.654	840.56
501.871	785.56
502.088	739.56
502.305	688.56
502.522	672.56
502.739	669.56
502.956	618.56
503.172	604.56
503.389	613.56
503.606	606.56
503.823	593.56
504.04	589.56
504.256	581.56
504.473	580.56
504.69	572.56
504.907	567.56
505.123	575.56
505.34	552.56
505.557	532.56
505.773	525.56
505.99	540.56
506.207	542.56
506.423	537.56
506.64	523.56
506.856	500.56
507.073	504.56
507.289	508.56
507.506	514.56
507.722	514.56
507.939	521.56
508.155	527.56
508.372	463.56
508.588	495.56
508.805	491.56
509.021	504.56
509.238	494.56
509.454	525.56
509.67	497.56
509.887	470.56
510.103	491.56
510.319	492.56
510.536	542.56
510.752	798.56
510.968	633.56
511.184	523.56
511.401	462.56
511.617	487.56
511.833	460.56
512.049	464.56
512.265	460.56
512.481	465.56
512.698	466.56
512.914	479.56
513.13	457.56
513.346	458.56
513.562	449.56
513.778	474.56
513.994	449.56
514.21	469.56
514.426	483.56
514.642	508.56
514.858	508.56
515.074	517.56
515.29	605.56
515.506	815.56
515.721	748.56
515.937	549.56
516.153	526.56
516.369	493.56
516.585	504.56
516.801	524.56
517.016	522.56
517.232	529.56
517.448	525.56
517.664	521.56
517.879	548.56
518.095	536.56
518.311	536.56
518.527	513.56
518.742	518.56
518.958	492.56
519.173	474.56
519.389	489.56
519.605	492.56
519.82	487.56
520.036	490.56
520.251	481.56
520.467	481.56
520.682	486.56
520.898	480.56
521.113	481.56
521.329	526.56
521.544	568.56
521.76	665.56
521.975	1046.56
522.19	976.56
522.406	603.56
522.621	486.56
522.836	452.56
523.052	442.56
523.267	446.56
523.482	415.56
523.698	425.56
523.913	418.56
524.128	401.56
524.343	412.56
524.559	404.56
524.774	398.56
524.989	422.56
525.204	422.56
525.419	398.56
525.634	389.56
525.849	393.56
526.064	403.56
526.28	388.56
526.495	398.56
526.71	406.56
526.925	420.56
527.14	404.56
527.355	385.56
527.57	392.56
527.785	384.56
527.999	385.56
528.214	400.56
528.429	391.56
528.644	397.56
528.859	386.56
529.074	390.56
529.289	406.56
529.503	459.56
529.718	416.56
529.933	384.56
530.148	402.56
530.363	400.56
530.577	399.56
530.792	383.56
531.007	391.56
531.221	372.56
531.436	381.56
531.651	380.56
531.865	374.56
532.08	397.56
532.295	395.56
532.509	382.56
532.724	367.56
532.938	366.56
533.153	369.56
533.367	358.56
533.582	380.56
533.796	366.56
534.011	368.56
534.225	367.56
534.44	362.56
534.654	378.56
534.868	376.56
535.083	377.56
535.297	384.56
535.511	370.56
535.726	375.56
535.94	357.56
536.154	383.56
536.369	356.56
536.583	372.56
536.797	371.56
537.011	365.56
537.225	368.56
537.44	356.56
537.654	375.56
537.868	360.56
538.082	364.56
538.296	369.56
538.51	363.56
538.724	369.56
538.938	364.56
539.153	372.56
539.367	379.56
539.581	363.56
539.795	378.56
540.009	377.56
540.222	369.56
540.436	352.56
540.65	381.56
540.864	367.56
541.078	368.56
541.292	379.56
541.506	366.56
541.72	356.56
541.934	367.56
542.147	355.56
542.361	351.56
542.575	374.56
542.789	358.56
543.002	362.56
543.216	385.56
543.43	378.56
543.644	365.56
543.857	360.56
544.071	378.56
544.285	378.56
544.498	382.56
544.712	365.56
544.925	381.56
545.139	381.56
545.352	368.56
545.566	376.56
545.779	353.56
545.993	356.56
546.206	382.56
546.42	389.56
546.633	378.56
546.847	374.56
547.06	357.56
547.274	387.56
547.487	359.56
547.7	363.56
547.914	362.56
548.127	378.56
548.34	384.56
548.554	365.56
548.767	372.56
548.98	340.56
549.193	372.56
549.407	375.56
549.62	367.56
549.833	372.56
550.046	371.56
550.259	346.56
550.473	372.56
550.686	381.56
550.899	365.56
551.112	354.56
551.325	343.56
551.538	378.56
551.751	368.56
551.964	362.56
552.177	366.56
552.39	381.56
552.603	370.56
552.816	385.56
553.029	412.56
553.242	366.56
553.455	372.56
553.667	382.56
553.88	374.56
554.093	378.56
554.306	368.56
554.519	370.56
554.732	372.56
554.944	370.56
555.157	356.56
555.37	336.56
555.583	353.56
555.795	340.56
556.008	350.56
556.221	317.56
556.433	332.56
556.646	337.56
556.859	347.56
557.071	310.56
557.284	324.56
557.496	322.56
557.709	342.56
557.921	333.56
558.134	332.56
558.346	330.56
558.559	325.56
558.771	323.56
558.984	321.56
559.196	317.56
559.409	314.56
559.621	316.56
559.833	314.56
560.046	305.56
560.258	310.56
560.47	310.56
560.683	309.56
560.895	321.56
561.107	321.56
561.32	316.56
561.532	317.56
561.744	313.56
561.956	313.56
562.168	328.56
562.381	313.56
562.593	311.56
562.805	334.56
563.017	310.56
563.229	324.56
563.441	318.56
563.653	329.56
563.865	318.56
564.077	327.56
564.289	334.56
564.501	342.56
564.713	326.56
564.925	331.56
565.137	337.56
565.349	350.56
565.561	360.56
565.773	364.56
565.985	380.56
566.197	386.56
566.408	400.56
566.62	402.56
566.832	425.56
567.044	437.56
567.255	438.56
567.467	438.56
567.679	478.56
567.891	479.56
568.102	492.56
568.314	469.56
568.526	455.56
568.737	428.56
568.949	388.56
569.161	382.56
569.372	369.56
569.584	332.56
569.795	342.56
570.007	350.56
570.218	350.56
570.43	351.56
570.641	335.56
570.853	328.56
571.064	345.56
571.276	322.56
571.487	318.56
571.698	306.56
571.91	303.56
572.121	316.56
572.333	305.56
572.544	292.56
572.755	306.56
572.966	292.56
573.178	299.56
573.389	274.56
573.6	287.56
573.811	292.56
574.023	286.56
574.234	282.56
574.445	287.56
574.656	269.56
574.867	271.56
575.078	291.56
575.289	301.56
575.501	285.56
575.712	261.56
575.923	263.56
576.134	291.56
576.345	252.56
576.556	268.56
576.767	282.56
576.978	264.56
577.188	264.56
577.399	277.56
577.61	266.56
577.821	282.56
578.032	263.56
578.243	288.56
578.454	370.56
578.665	327.56
578.875	286.56
579.086	278.56
579.297	255.56
579.508	272.56
579.718	271.56
579.929	263.56
580.14	245.56
580.35	278.56
580.561	254.56
580.772	270.56
580.982	257.56
581.193	272.56
581.403	252.56
581.614	262.56
581.825	249.56
582.035	255.56
582.246	264.56
582.456	255.56
582.667	247.56
582.877	250.56
583.087	255.56
583.298	265.56
583.508	250.56
583.719	244.56
583.929	268.56
584.139	247.56
584.35	258.56
584.56	264.56
584.77	227.56
584.981	246.56
585.191	244.56
585.401	241.56
585.611	241.56
585.821	249.56
586.032	239.56
586.242	240.56
586.452	230.56
586.662	239.56
586.872	243.56
587.082	238.56
587.292	252.56
587.502	246.56
587.713	240.56
587.923	238.56
588.133	240.56
588.343	232.56
588.553	234.56
588.762	229.56
588.972	238.56
589.182	248.56
589.392	256.56
589.602	246.56
589.812	232.56
590.022	265.56
590.232	260.56
590.441	250.56
590.651	256.56
590.861	234.56
591.071	256.56
591.281	256.56
591.49	260.56
591.7	253.56
591.91	266.56
592.119	272.56
592.329	267.56
592.539	291.56
592.748	280.56
592.958	292.56
593.167	274.56
593.377	273.56
593.587	293.56
593.796	300.56
594.006	295.56
594.215	288.56
594.424	288.56
594.634	281.56
594.843	270.56
595.053	267.56
595.262	265.56
595.472	253.56
595.681	254.56
595.89	270.56
596.1	248.56
596.309	239.56
596.518	223.56
596.727	232.56
596.937	261.56
597.146	225.56
597.355	244.56
597.564	239.56
597.774	235.56
597.983	217.56
598.192	220.56
598.401	229.56
598.61	224.56
598.819	215.56
599.028	236.56
599.237	217.56
599.446	232.56
599.655	229.56
599.864	218.56
600.073	228.56
600.282	215.56
600.491	222.56
600.7	222.56
600.909	219.56
601.118	224.56
601.327	220.56
601.536	213.56
601.745	222.56
601.953	208.56
602.162	227.56
602.371	224.56
602.58	212.56
602.789	216.56
602.997	203.56
603.206	217.56
603.415	210.56
603.623	205.56
603.832	219.56
604.041	204.56
604.249	194.56
604.458	218.56
604.666	222.56
604.875	214.56
605.084	207.56
605.292	211.56
605.501	204.56
605.709	208.56
605.918	207.56
606.126	218.56
606.334	213.56
606.543	232.56
606.751	209.56
606.96	225.56
607.168	220.56
607.376	218.56
607.585	202.56
607.793	202.56
608.001	194.56
608.21	212.56
608.418	203.56
608.626	222.56
608.834	202.56
609.043	208.56
609.251	204.56
609.459	212.56
609.667	224.56
609.875	221.56
610.083	221.56
610.291	208.56
610.499	219.56
610.707	225.56
610.916	198.56
611.124	209.56
611.332	203.56
611.54	201.56
611.748	214.56
611.955	236.56
612.163	207.56
612.371	214.56
612.579	215.56
612.787	236.56
612.995	215.56
613.203	194.56
613.411	204.56
613.618	192.56
613.826	202.56
614.034	212.56
614.242	207.56
614.449	212.56
614.657	205.56
614.865	205.56
615.072	202.56
615.28	193.56
615.488	207.56
615.695	203.56
615.903	206.56
616.111	213.56
616.318	187.56
616.526	207.56
616.733	201.56
616.941	209.56
617.148	223.56
617.356	184.56
617.563	209.56
617.771	191.56
617.978	205.56
618.185	215.56
618.393	192.56
618.6	217.56
618.807	202.56
619.015	209.56
619.222	192.56
619.429	185.56
619.637	206.56
619.844	223.56
620.051	194.56
620.258	201.56
620.466	202.56
620.673	186.56
620.88	187.56
621.087	175.56
621.294	208.56
621.501	205.56
621.708	213.56
621.915	189.56
622.122	187.56
622.329	202.56
622.536	212.56
622.743	188.56
622.95	193.56
623.157	189.56
623.364	206.56
623.571	187.56
623.778	193.56
623.985	204.56
624.192	184.56
624.399	168.56
624.606	185.56
624.812	184.56
625.019	197.56
625.226	198.56
625.433	179.56
625.639	189.56
625.846	184.56
626.053	181.56
626.259	178.56
626.466	188.56
626.673	172.56
626.879	190.56
627.086	175.56
627.293	175.56
627.499	190.56
627.706	190.56
627.912	180.56
628.119	159.56
628.325	174.56
628.532	172.56
628.738	172.56
628.945	183.56
629.151	177.56
629.357	184.56
629.564	166.56
629.77	177.56
629.976	167.56
630.183	166.56
630.389	205.56
630.595	178.56
630.802	171.56
631.008	164.56
631.214	174.56
631.42	172.56
631.627	177.56
631.833	161.56
632.039	152.56
632.245	173.56
632.451	161.56
632.657	184.56
632.863	171.56
633.069	166.56
633.275	186.56
633.481	184.56
633.688	175.56
633.893	166.56
634.099	174.56
634.305	164.56
634.511	161.56
634.717	178.56
634.923	175.56
635.129	164.56
635.335	150.56
635.541	175.56
635.747	171.56
635.952	148.56
636.158	153.56
636.364	181.56
636.57	189.56
636.775	178.56
636.981	158.56
637.187	169.56
637.392	173.56
637.598	156.56
637.804	141.56
638.009	160.56
638.215	170.56
638.421	165.56
638.626	159.56
638.832	156.56
639.037	163.56
639.243	162.56
639.448	177.56
639.654	158.56
639.859	168.56
640.065	151.56
640.27	172.56
640.475	157.56
640.681	164.56
640.886	172.56
641.091	162.56
641.297	146.56
641.502	151.56
641.707	148.56
641.913	147.56
642.118	151.56
642.323	166.56
642.528	148.56
642.733	138.56
642.939	143.56
643.144	148.56
643.349	160.56
643.554	161.56
643.759	151.56
643.964	134.56
644.169	146.56
644.374	149.56
644.579	152.56
644.784	148.56
644.989	148.56
645.194	162.56
645.399	160.56
645.604	157.56
645.809	151.56
646.014	146.56
646.219	149.56
646.423	166.56
646.628	164.56
646.833	145.56
647.038	160.56
647.243	151.56
647.447	177.56
647.652	151.56
647.857	156.56
648.062	141.56
648.266	162.56
648.471	155.56
648.676	170.56
648.88	161.56
649.085	165.56
649.289	153.56
649.494	167.56
649.698	153.56
649.903	180.56
650.107	144.56
650.312	166.56
650.516	147.56
650.721	136.56
650.925	140.56
651.13	154.56
651.334	147.56
651.539	153.56
651.743	143.56
651.947	147.56
652.152	153.56
652.356	134.56
652.56	134.56
652.764	126.56
652.969	132.56
653.173	132.56
653.377	133.56
653.581	138.56
653.785	141.56
653.99	129.56
654.194	145.56
654.398	126.56
654.602	135.56
654.806	125.56
655.01	125.56
655.214	143.56
655.418	136.56
655.622	147.56
655.826	134.56
656.03	135.56
656.234	144.56
656.438	135.56
656.642	134.56
656.846	139.56
657.049	128.56
657.253	130.56
657.457	123.56
657.661	109.56
657.865	123.56
658.068	113.56
658.272	112.56
658.476	114.56
658.68	119.56
658.883	116.56
659.087	107.56
659.291	120.56
659.494	96.56
659.698	104.56
659.901	89.56
660.105	104.56
660.309	98.56
660.512	96.56
660.716	96.56
660.919	85.56
661.123	99.56
661.326	100.56
661.53	92.56
661.733	88.56
661.936	79.56
662.14	82.56
662.343	102.56
662.546	76.56
662.75	82.56
662.953	89.56
663.156	94.56
663.36	96.56
663.563	92.56
663.766	76.56
663.969	90.56
664.173	88.56
664.376	73.56
664.579	88.56
664.782	79.56
664.985	87.56
665.188	92.56
665.391	64.56
665.594	78.56
665.797	88.56
666	80.56
666.203	97.56
666.406	96.56
666.609	87.56
666.812	90.56
667.015	84.56
667.218	79.56
667.421	84.56
667.624	90.56
667.827	91.56
668.03	84.56
668.232	89.56
668.435	86.56
668.638	72.56
668.841	105.56
669.043	81.56
669.246	88.56
669.449	91.56
669.651	83.56
669.854	89.56
670.057	88.56
670.259	81.56
670.462	86.56
670.665	82.56
670.867	88.56
671.07	89.56
671.272	96.56
671.475	90.56
671.677	94.56
671.88	72.56
672.082	78.56
672.284	82.56
672.487	77.56
672.689	97.56
672.892	78.56
