Data from 1969.PennyLincolnUp.Lamp.En5.5.200Scan.071719.P1._HRD10591_14-57-03-973.txt Node
Date: Thu Jul 18 14:57:03 EDT 2019
User: cochatt
Spectrometer: HR+D1059
Trigger mode: 1
Integration Time (sec): 1.000000E-1
Scans to average: 1
Electric dark correction enabled: true
Nonlinearity correction enabled: false
Boxcar width: 0
XAxis mode: Wavelengths
Number of Pixels in Spectrum: 2048
>>>>>Begin Spectral Data<<<<<
223.165	-15.5
223.4	-15.5
223.635	-15.5
223.869	-7.5
224.104	-29.5
224.338	-11.5
224.573	-28.5
224.808	-5.5
225.042	6.5
225.277	-5.5
225.511	-6.5
225.746	16.5
225.98	1.5
226.215	7.5
226.449	5.5
226.683	18.5
226.918	26.5
227.152	27.5
227.387	23.5
227.621	38.5
227.856	54.5
228.09	45.5
228.324	55.5
228.559	51.5
228.793	55.5
229.027	71.5
229.262	87.5
229.496	111.5
229.73	121.5
229.964	124.5
230.199	105.5
230.433	100.5
230.667	124.5
230.901	102.5
231.136	94.5
231.37	97.5
231.604	103.5
231.838	92.5
232.072	98.5
232.306	107.5
232.541	108.5
232.775	92.5
233.009	99.5
233.243	115.5
233.477	95.5
233.711	105.5
233.945	105.5
234.179	101.5
234.413	118.5
234.647	85.5
234.881	116.5
235.115	107.5
235.349	116.5
235.583	123.5
235.817	110.5
236.051	119.5
236.285	102.5
236.519	106.5
236.753	118.5
236.987	124.5
237.221	146.5
237.455	181.5
237.689	149.5
237.922	135.5
238.156	127.5
238.39	106.5
238.624	125.5
238.858	115.5
239.091	115.5
239.325	96.5
239.559	117.5
239.793	103.5
240.027	123.5
240.26	141.5
240.494	131.5
240.728	148.5
240.961	116.5
241.195	124.5
241.429	120.5
241.662	124.5
241.896	119.5
242.13	115.5
242.363	133.5
242.597	120.5
242.83	110.5
243.064	116.5
243.298	119.5
243.531	130.5
243.765	132.5
243.998	137.5
244.232	134.5
244.465	135.5
244.699	123.5
244.932	127.5
245.166	133.5
245.399	134.5
245.633	136.5
245.866	141.5
246.099	138.5
246.333	139.5
246.566	136.5
246.8	128.5
247.033	148.5
247.266	138.5
247.5	143.5
247.733	135.5
247.966	166.5
248.2	145.5
248.433	153.5
248.666	172.5
248.899	163.5
249.133	183.5
249.366	177.5
249.599	178.5
249.832	158.5
250.066	163.5
250.299	156.5
250.532	170.5
250.765	167.5
250.998	177.5
251.231	189.5
251.465	180.5
251.698	162.5
251.931	179.5
252.164	174.5
252.397	166.5
252.63	178.5
252.863	187.5
253.096	185.5
253.329	188.5
253.562	194.5
253.795	178.5
254.028	188.5
254.261	199.5
254.494	194.5
254.727	224.5
254.96	236.5
255.193	214.5
255.426	204.5
255.659	193.5
255.892	184.5
256.124	203.5
256.357	198.5
256.59	200.5
256.823	182.5
257.056	172.5
257.289	167.5
257.521	176.5
257.754	179.5
257.987	173.5
258.22	181.5
258.452	181.5
258.685	178.5
258.918	177.5
259.151	183.5
259.383	194.5
259.616	181.5
259.849	189.5
260.081	189.5
260.314	216.5
260.547	222.5
260.779	204.5
261.012	201.5
261.244	190.5
261.477	193.5
261.71	204.5
261.942	189.5
262.175	197.5
262.407	197.5
262.64	187.5
262.872	185.5
263.105	178.5
263.337	199.5
263.57	172.5
263.802	179.5
264.035	178.5
264.267	185.5
264.499	193.5
264.732	173.5
264.964	182.5
265.197	169.5
265.429	181.5
265.661	190.5
265.894	192.5
266.126	183.5
266.358	177.5
266.591	199.5
266.823	189.5
267.055	186.5
267.287	203.5
267.52	181.5
267.752	199.5
267.984	200.5
268.216	198.5
268.448	215.5
268.681	195.5
268.913	216.5
269.145	221.5
269.377	244.5
269.609	227.5
269.841	223.5
270.073	243.5
270.306	244.5
270.538	258.5
270.77	274.5
271.002	254.5
271.234	245.5
271.466	251.5
271.698	262.5
271.93	269.5
272.162	271.5
272.394	279.5
272.626	242.5
272.858	235.5
273.09	235.5
273.322	232.5
273.553	242.5
273.785	238.5
274.017	241.5
274.249	225.5
274.481	244.5
274.713	232.5
274.945	223.5
275.176	240.5
275.408	236.5
275.64	246.5
275.872	232.5
276.104	235.5
276.335	248.5
276.567	228.5
276.799	246.5
277.031	271.5
277.262	279.5
277.494	260.5
277.726	251.5
277.957	254.5
278.189	253.5
278.421	235.5
278.652	255.5
278.884	235.5
279.115	243.5
279.347	238.5
279.579	237.5
279.81	241.5
280.042	216.5
280.273	225.5
280.505	231.5
280.736	229.5
280.968	234.5
281.199	246.5
281.431	230.5
281.662	261.5
281.894	234.5
282.125	228.5
282.356	253.5
282.588	268.5
282.819	266.5
283.051	259.5
283.282	247.5
283.513	247.5
283.745	249.5
283.976	265.5
284.207	249.5
284.439	256.5
284.67	251.5
284.901	262.5
285.132	260.5
285.364	235.5
285.595	261.5
285.826	268.5
286.057	263.5
286.288	262.5
286.52	247.5
286.751	255.5
286.982	257.5
287.213	261.5
287.444	264.5
287.675	263.5
287.906	283.5
288.138	291.5
288.369	267.5
288.6	279.5
288.831	280.5
289.062	267.5
289.293	257.5
289.524	257.5
289.755	276.5
289.986	248.5
290.217	262.5
290.448	252.5
290.679	267.5
290.91	249.5
291.141	254.5
291.371	272.5
291.602	255.5
291.833	262.5
292.064	243.5
292.295	269.5
292.526	272.5
292.757	275.5
292.987	259.5
293.218	244.5
293.449	289.5
293.68	267.5
293.91	267.5
294.141	295.5
294.372	252.5
294.603	262.5
294.833	269.5
295.064	257.5
295.295	249.5
295.525	267.5
295.756	266.5
295.987	268.5
296.217	266.5
296.448	289.5
296.679	274.5
296.909	267.5
297.14	257.5
297.37	270.5
297.601	271.5
297.831	270.5
298.062	271.5
298.292	281.5
298.523	278.5
298.753	289.5
298.984	282.5
299.214	296.5
299.445	291.5
299.675	272.5
299.905	266.5
300.136	281.5
300.366	283.5
300.597	294.5
300.827	287.5
301.057	289.5
301.288	297.5
301.518	315.5
301.748	293.5
301.979	301.5
302.209	299.5
302.439	319.5
302.669	308.5
302.9	307.5
303.13	303.5
303.36	295.5
303.59	297.5
303.82	294.5
304.051	295.5
304.281	290.5
304.511	296.5
304.741	284.5
304.971	307.5
305.201	299.5
305.431	270.5
305.661	303.5
305.891	307.5
306.121	307.5
306.352	298.5
306.582	307.5
306.812	296.5
307.042	301.5
307.272	277.5
307.502	291.5
307.731	299.5
307.961	292.5
308.191	302.5
308.421	298.5
308.651	308.5
308.881	295.5
309.111	300.5
309.341	296.5
309.571	318.5
309.8	319.5
310.03	323.5
310.26	317.5
310.49	315.5
310.72	313.5
310.949	325.5
311.179	338.5
311.409	335.5
311.639	324.5
311.868	324.5
312.098	325.5
312.328	335.5
312.557	333.5
312.787	344.5
313.017	328.5
313.246	336.5
313.476	330.5
313.706	321.5
313.935	328.5
314.165	345.5
314.394	335.5
314.624	322.5
314.853	337.5
315.083	334.5
315.312	322.5
315.542	322.5
315.771	330.5
316.001	306.5
316.23	334.5
316.46	318.5
316.689	322.5
316.919	327.5
317.148	350.5
317.377	336.5
317.607	337.5
317.836	315.5
318.065	334.5
318.295	327.5
318.524	315.5
318.753	320.5
318.983	326.5
319.212	311.5
319.441	320.5
319.67	340.5
319.9	314.5
320.129	335.5
320.358	345.5
320.587	339.5
320.816	332.5
321.046	323.5
321.275	338.5
321.504	358.5
321.733	336.5
321.962	340.5
322.191	356.5
322.42	345.5
322.649	353.5
322.878	362.5
323.108	366.5
323.337	394.5
323.566	394.5
323.795	387.5
324.024	441.5
324.253	477.5
324.482	694.5
324.71	945.5
324.939	1266.5
325.168	1061.5
325.397	606.5
325.626	465.5
325.855	418.5
326.084	398.5
326.313	384.5
326.542	405.5
326.77	431.5
326.999	477.5
327.228	620.5
327.457	876.5
327.686	960.5
327.914	682.5
328.143	511.5
328.372	479.5
328.6	439.5
328.829	450.5
329.058	439.5
329.287	451.5
329.515	435.5
329.744	401.5
329.972	415.5
330.201	392.5
330.43	454.5
330.658	468.5
330.887	479.5
331.115	485.5
331.344	440.5
331.572	403.5
331.801	417.5
332.03	405.5
332.258	410.5
332.486	398.5
332.715	399.5
332.943	409.5
333.172	418.5
333.4	433.5
333.629	445.5
333.857	445.5
334.085	449.5
334.314	462.5
334.542	493.5
334.771	469.5
334.999	428.5
335.227	425.5
335.455	420.5
335.684	392.5
335.912	394.5
336.14	388.5
336.369	395.5
336.597	380.5
336.825	377.5
337.053	385.5
337.281	397.5
337.51	380.5
337.738	368.5
337.966	387.5
338.194	395.5
338.422	373.5
338.65	379.5
338.878	381.5
339.106	355.5
339.334	375.5
339.562	388.5
339.79	366.5
340.018	364.5
340.246	372.5
340.474	374.5
340.702	381.5
340.93	378.5
341.158	358.5
341.386	386.5
341.614	369.5
341.842	356.5
342.07	365.5
342.298	372.5
342.526	362.5
342.754	355.5
342.981	349.5
343.209	332.5
343.437	361.5
343.665	397.5
343.893	395.5
344.12	379.5
344.348	373.5
344.576	363.5
344.804	367.5
345.031	385.5
345.259	389.5
345.487	372.5
345.714	359.5
345.942	365.5
346.17	350.5
346.397	348.5
346.625	362.5
346.853	360.5
347.08	345.5
347.308	334.5
347.535	355.5
347.763	349.5
347.99	359.5
348.218	372.5
348.445	363.5
348.673	374.5
348.9	335.5
349.128	349.5
349.355	354.5
349.583	344.5
349.81	341.5
350.037	343.5
350.265	340.5
350.492	335.5
350.72	340.5
350.947	357.5
351.174	343.5
351.402	364.5
351.629	331.5
351.856	360.5
352.083	369.5
352.311	357.5
352.538	334.5
352.765	367.5
352.992	338.5
353.22	337.5
353.447	341.5
353.674	346.5
353.901	321.5
354.128	335.5
354.355	328.5
354.583	318.5
354.81	330.5
355.037	339.5
355.264	344.5
355.491	323.5
355.718	318.5
355.945	335.5
356.172	338.5
356.399	323.5
356.626	342.5
356.853	335.5
357.08	330.5
357.307	333.5
357.534	335.5
357.761	324.5
357.988	327.5
358.215	353.5
358.441	327.5
358.668	334.5
358.895	335.5
359.122	347.5
359.349	340.5
359.576	349.5
359.802	380.5
360.029	365.5
360.256	371.5
360.483	357.5
360.709	348.5
360.936	350.5
361.163	346.5
361.39	348.5
361.616	349.5
361.843	338.5
362.07	345.5
362.296	343.5
362.523	340.5
362.749	353.5
362.976	324.5
363.203	329.5
363.429	353.5
363.656	332.5
363.882	338.5
364.109	321.5
364.335	347.5
364.562	334.5
364.788	307.5
365.015	341.5
365.241	339.5
365.468	346.5
365.694	345.5
365.92	342.5
366.147	326.5
366.373	323.5
366.599	324.5
366.826	318.5
367.052	318.5
367.278	335.5
367.505	330.5
367.731	333.5
367.957	333.5
368.184	318.5
368.41	339.5
368.636	315.5
368.862	343.5
369.089	328.5
369.315	340.5
369.541	338.5
369.767	334.5
369.993	339.5
370.219	329.5
370.445	344.5
370.672	338.5
370.898	342.5
371.124	324.5
371.35	350.5
371.576	343.5
371.802	318.5
372.028	329.5
372.254	359.5
372.48	345.5
372.706	347.5
372.932	357.5
373.158	363.5
373.384	353.5
373.61	336.5
373.835	344.5
374.061	340.5
374.287	339.5
374.513	350.5
374.739	325.5
374.965	355.5
375.191	359.5
375.416	358.5
375.642	342.5
375.868	346.5
376.094	335.5
376.319	330.5
376.545	330.5
376.771	320.5
376.997	341.5
377.222	312.5
377.448	333.5
377.674	314.5
377.899	325.5
378.125	331.5
378.35	330.5
378.576	331.5
378.802	338.5
379.027	339.5
379.253	345.5
379.478	309.5
379.704	324.5
379.929	330.5
380.155	345.5
380.38	350.5
380.606	347.5
380.831	323.5
381.057	344.5
381.282	326.5
381.507	337.5
381.733	337.5
381.958	339.5
382.184	361.5
382.409	336.5
382.634	335.5
382.86	351.5
383.085	362.5
383.31	331.5
383.535	345.5
383.761	371.5
383.986	360.5
384.211	366.5
384.436	377.5
384.662	359.5
384.887	385.5
385.112	381.5
385.337	383.5
385.562	389.5
385.787	391.5
386.013	395.5
386.238	355.5
386.463	381.5
386.688	365.5
386.913	387.5
387.138	381.5
387.363	395.5
387.588	375.5
387.813	387.5
388.038	364.5
388.263	365.5
388.488	389.5
388.713	374.5
388.938	385.5
389.163	368.5
389.387	369.5
389.612	365.5
389.837	380.5
390.062	358.5
390.287	368.5
390.512	359.5
390.736	367.5
390.961	395.5
391.186	371.5
391.411	375.5
391.636	386.5
391.86	400.5
392.085	399.5
392.31	402.5
392.534	405.5
392.759	387.5
392.984	385.5
393.208	372.5
393.433	390.5
393.658	378.5
393.882	369.5
394.107	374.5
394.331	391.5
394.556	392.5
394.78	382.5
395.005	376.5
395.229	386.5
395.454	401.5
395.678	406.5
395.903	386.5
396.127	410.5
396.352	414.5
396.576	395.5
396.801	394.5
397.025	400.5
397.249	384.5
397.474	410.5
397.698	401.5
397.922	412.5
398.147	429.5
398.371	422.5
398.595	425.5
398.82	429.5
399.044	452.5
399.268	482.5
399.492	524.5
399.717	566.5
399.941	565.5
400.165	574.5
400.389	535.5
400.613	480.5
400.837	486.5
401.062	455.5
401.286	420.5
401.51	450.5
401.734	421.5
401.958	441.5
402.182	432.5
402.406	463.5
402.63	461.5
402.854	458.5
403.078	454.5
403.302	473.5
403.526	457.5
403.75	467.5
403.974	478.5
404.198	471.5
404.422	477.5
404.645	475.5
404.869	492.5
405.093	486.5
405.317	515.5
405.541	533.5
405.765	495.5
405.988	492.5
406.212	482.5
406.436	506.5
406.66	508.5
406.883	505.5
407.107	519.5
407.331	557.5
407.555	575.5
407.778	609.5
408.002	553.5
408.226	485.5
408.449	504.5
408.673	505.5
408.896	519.5
409.12	533.5
409.344	519.5
409.567	461.5
409.791	470.5
410.014	464.5
410.238	469.5
410.461	476.5
410.685	454.5
410.908	473.5
411.132	455.5
411.355	513.5
411.578	478.5
411.802	477.5
412.025	457.5
412.249	461.5
412.472	502.5
412.695	498.5
412.919	494.5
413.142	475.5
413.365	467.5
413.589	448.5
413.812	445.5
414.035	448.5
414.258	413.5
414.482	428.5
414.705	424.5
414.928	429.5
415.151	440.5
415.374	446.5
415.597	424.5
415.821	419.5
416.044	438.5
416.267	430.5
416.49	446.5
416.713	425.5
416.936	422.5
417.159	438.5
417.382	425.5
417.605	437.5
417.828	427.5
418.051	431.5
418.274	441.5
418.497	422.5
418.72	438.5
418.943	438.5
419.166	457.5
419.389	457.5
419.611	476.5
419.834	452.5
420.057	464.5
420.28	429.5
420.503	451.5
420.726	443.5
420.948	461.5
421.171	471.5
421.394	491.5
421.617	433.5
421.839	433.5
422.062	442.5
422.285	461.5
422.507	473.5
422.73	527.5
422.953	518.5
423.175	489.5
423.398	444.5
423.621	480.5
423.843	491.5
424.066	481.5
424.288	474.5
424.511	490.5
424.733	500.5
424.956	556.5
425.178	526.5
425.401	556.5
425.623	542.5
425.846	485.5
426.068	476.5
426.291	449.5
426.513	442.5
426.735	439.5
426.958	486.5
427.18	523.5
427.402	593.5
427.625	627.5
427.847	555.5
428.069	508.5
428.292	482.5
428.514	452.5
428.736	434.5
428.958	425.5
429.181	410.5
429.403	414.5
429.625	431.5
429.847	435.5
430.069	489.5
430.292	471.5
430.514	436.5
430.736	405.5
430.958	411.5
431.18	406.5
431.402	397.5
431.624	414.5
431.846	404.5
432.068	411.5
432.29	413.5
432.512	404.5
432.734	407.5
432.956	413.5
433.178	410.5
433.4	435.5
433.622	419.5
433.844	412.5
434.066	389.5
434.287	404.5
434.509	418.5
434.731	434.5
434.953	458.5
435.175	468.5
435.397	451.5
435.618	459.5
435.84	455.5
436.062	532.5
436.284	561.5
436.505	482.5
436.727	454.5
436.949	428.5
437.17	422.5
437.392	417.5
437.614	433.5
437.835	442.5
438.057	486.5
438.278	543.5
438.5	561.5
438.721	602.5
438.943	569.5
439.165	489.5
439.386	437.5
439.608	451.5
439.829	451.5
440.05	458.5
440.272	487.5
440.493	475.5
440.715	435.5
440.936	430.5
441.158	440.5
441.379	438.5
441.6	446.5
441.822	449.5
442.043	487.5
442.264	541.5
442.486	566.5
442.707	492.5
442.928	469.5
443.149	478.5
443.371	488.5
443.592	508.5
443.813	566.5
444.034	597.5
444.255	526.5
444.476	487.5
444.698	491.5
444.919	490.5
445.14	579.5
445.361	508.5
445.582	477.5
445.803	538.5
446.024	595.5
446.245	571.5
446.466	526.5
446.687	463.5
446.908	448.5
447.129	403.5
447.35	435.5
447.571	411.5
447.792	425.5
448.013	414.5
448.234	423.5
448.455	462.5
448.675	540.5
448.896	589.5
449.117	514.5
449.338	460.5
449.559	556.5
449.779	608.5
450	510.5
450.221	421.5
450.442	419.5
450.662	406.5
450.883	433.5
451.104	394.5
451.324	402.5
451.545	390.5
451.766	399.5
451.986	393.5
452.207	360.5
452.428	367.5
452.648	381.5
452.869	390.5
453.089	363.5
453.31	367.5
453.53	372.5
453.751	380.5
453.971	385.5
454.192	399.5
454.412	386.5
454.633	375.5
454.853	379.5
455.073	382.5
455.294	401.5
455.514	427.5
455.734	426.5
455.955	397.5
456.175	357.5
456.395	357.5
456.616	363.5
456.836	353.5
457.056	342.5
457.276	351.5
457.497	354.5
457.717	374.5
457.937	375.5
458.157	375.5
458.377	363.5
458.598	397.5
458.818	430.5
459.038	443.5
459.258	482.5
459.478	432.5
459.698	416.5
459.918	436.5
460.138	426.5
460.358	425.5
460.578	442.5
460.798	431.5
461.018	443.5
461.238	435.5
461.458	444.5
461.678	421.5
461.898	416.5
462.118	433.5
462.338	448.5
462.558	478.5
462.777	466.5
462.997	490.5
463.217	507.5
463.437	515.5
463.657	485.5
463.876	487.5
464.096	486.5
464.316	474.5
464.536	460.5
464.755	486.5
464.975	465.5
465.195	475.5
465.414	511.5
465.634	459.5
465.854	435.5
466.073	429.5
466.293	416.5
466.512	395.5
466.732	396.5
466.951	397.5
467.171	418.5
467.391	405.5
467.61	398.5
467.829	394.5
468.049	408.5
468.268	405.5
468.488	383.5
468.707	385.5
468.927	384.5
469.146	389.5
469.365	393.5
469.585	385.5
469.804	389.5
470.023	397.5
470.243	400.5
470.462	414.5
470.681	411.5
470.901	439.5
471.12	401.5
471.339	402.5
471.558	410.5
471.777	401.5
471.997	396.5
472.216	403.5
472.435	420.5
472.654	404.5
472.873	410.5
473.092	381.5
473.311	396.5
473.53	382.5
473.749	392.5
473.968	421.5
474.187	465.5
474.406	473.5
474.625	414.5
474.844	383.5
475.063	394.5
475.282	406.5
475.501	409.5
475.72	392.5
475.939	398.5
476.158	413.5
476.377	417.5
476.596	406.5
476.814	426.5
477.033	405.5
477.252	413.5
477.471	429.5
477.69	426.5
477.908	423.5
478.127	447.5
478.346	448.5
478.564	434.5
478.783	456.5
479.002	431.5
479.22	455.5
479.439	466.5
479.658	489.5
479.876	480.5
480.095	504.5
480.313	501.5
480.532	488.5
480.751	474.5
480.969	491.5
481.188	526.5
481.406	546.5
481.624	475.5
481.843	451.5
482.061	460.5
482.28	468.5
482.498	469.5
482.717	465.5
482.935	455.5
483.153	450.5
483.372	434.5
483.59	449.5
483.808	450.5
484.027	442.5
484.245	435.5
484.463	453.5
484.681	473.5
484.9	488.5
485.118	457.5
485.336	462.5
485.554	485.5
485.772	449.5
485.99	461.5
486.209	487.5
486.427	469.5
486.645	479.5
486.863	492.5
487.081	477.5
487.299	468.5
487.517	467.5
487.735	477.5
487.953	484.5
488.171	489.5
488.389	493.5
488.607	490.5
488.825	472.5
489.043	470.5
489.261	471.5
489.479	478.5
489.696	483.5
489.914	475.5
490.132	501.5
490.35	493.5
490.568	510.5
490.786	505.5
491.003	515.5
491.221	536.5
491.439	538.5
491.657	549.5
491.874	580.5
492.092	557.5
492.31	548.5
492.527	563.5
492.745	566.5
492.963	572.5
493.18	591.5
493.398	552.5
493.615	567.5
493.833	577.5
494.05	586.5
494.268	585.5
494.485	578.5
494.703	560.5
494.92	557.5
495.138	565.5
495.355	553.5
495.573	579.5
495.79	579.5
496.008	562.5
496.225	549.5
496.442	571.5
496.66	596.5
496.877	582.5
497.094	579.5
497.312	599.5
497.529	587.5
497.746	603.5
497.963	606.5
498.181	658.5
498.398	633.5
498.615	657.5
498.832	670.5
499.049	679.5
499.267	726.5
499.484	767.5
499.701	814.5
499.918	878.5
500.135	934.5
500.352	988.5
500.569	990.5
500.786	1021.5
501.003	963.5
501.22	944.5
501.437	853.5
501.654	823.5
501.871	771.5
502.088	751.5
502.305	697.5
502.522	673.5
502.739	654.5
502.956	647.5
503.172	622.5
503.389	619.5
503.606	603.5
503.823	602.5
504.04	572.5
504.256	588.5
504.473	571.5
504.69	599.5
504.907	602.5
505.123	582.5
505.34	559.5
505.557	551.5
505.773	548.5
505.99	548.5
506.207	549.5
506.423	542.5
506.64	504.5
506.856	515.5
507.073	523.5
507.289	521.5
507.506	490.5
507.722	512.5
507.939	513.5
508.155	506.5
508.372	497.5
508.588	501.5
508.805	471.5
509.021	500.5
509.238	523.5
509.454	516.5
509.67	507.5
509.887	491.5
510.103	484.5
510.319	474.5
510.536	546.5
510.752	830.5
510.968	701.5
511.184	493.5
511.401	473.5
511.617	483.5
511.833	470.5
512.049	464.5
512.265	448.5
512.481	466.5
512.698	461.5
512.914	442.5
513.13	469.5
513.346	465.5
513.562	477.5
513.778	467.5
513.994	458.5
514.21	452.5
514.426	488.5
514.642	513.5
514.858	513.5
515.074	558.5
515.29	633.5
515.506	878.5
515.721	741.5
515.937	553.5
516.153	524.5
516.369	494.5
516.585	493.5
516.801	472.5
517.016	513.5
517.232	521.5
517.448	533.5
517.664	517.5
517.879	534.5
518.095	531.5
518.311	527.5
518.527	502.5
518.742	498.5
518.958	496.5
519.173	469.5
519.389	494.5
519.605	470.5
519.82	466.5
520.036	487.5
520.251	491.5
520.467	482.5
520.682	476.5
520.898	509.5
521.113	492.5
521.329	529.5
521.544	559.5
521.76	677.5
521.975	1096.5
522.19	1045.5
522.406	618.5
522.621	477.5
522.836	445.5
523.052	426.5
523.267	433.5
523.482	428.5
523.698	416.5
523.913	427.5
524.128	429.5
524.343	420.5
524.559	431.5
524.774	431.5
524.989	417.5
525.204	437.5
525.419	426.5
525.634	412.5
525.849	396.5
526.064	389.5
526.28	386.5
526.495	382.5
526.71	386.5
526.925	386.5
527.14	386.5
527.355	380.5
527.57	391.5
527.785	383.5
527.999	385.5
528.214	418.5
528.429	387.5
528.644	388.5
528.859	379.5
529.074	380.5
529.289	385.5
529.503	459.5
529.718	424.5
529.933	411.5
530.148	385.5
530.363	382.5
530.577	367.5
530.792	387.5
531.007	390.5
531.221	379.5
531.436	387.5
531.651	367.5
531.865	378.5
532.08	374.5
532.295	389.5
532.509	376.5
532.724	384.5
532.938	379.5
533.153	378.5
533.367	376.5
533.582	391.5
533.796	366.5
534.011	357.5
534.225	387.5
534.44	371.5
534.654	370.5
534.868	375.5
535.083	368.5
535.297	360.5
535.511	360.5
535.726	392.5
535.94	361.5
536.154	378.5
536.369	364.5
536.583	362.5
536.797	359.5
537.011	373.5
537.225	371.5
537.44	361.5
537.654	377.5
537.868	373.5
538.082	371.5
538.296	364.5
538.51	369.5
538.724	361.5
538.938	337.5
539.153	371.5
539.367	383.5
539.581	392.5
539.795	371.5
540.009	366.5
540.222	371.5
540.436	363.5
540.65	373.5
540.864	381.5
541.078	376.5
541.292	369.5
541.506	375.5
541.72	382.5
541.934	377.5
542.147	379.5
542.361	376.5
542.575	356.5
542.789	357.5
543.002	359.5
543.216	369.5
543.43	351.5
543.644	355.5
543.857	360.5
544.071	367.5
544.285	365.5
544.498	370.5
544.712	375.5
544.925	370.5
545.139	372.5
545.352	348.5
545.566	345.5
545.779	361.5
545.993	357.5
546.206	363.5
546.42	367.5
546.633	365.5
546.847	375.5
547.06	366.5
547.274	383.5
547.487	345.5
547.7	349.5
547.914	361.5
548.127	365.5
548.34	354.5
548.554	364.5
548.767	380.5
548.98	346.5
549.193	353.5
549.407	358.5
549.62	361.5
549.833	370.5
550.046	362.5
550.259	379.5
550.473	361.5
550.686	363.5
550.899	347.5
551.112	339.5
551.325	341.5
551.538	337.5
551.751	331.5
551.964	346.5
552.177	349.5
552.39	354.5
552.603	349.5
552.816	381.5
553.029	395.5
553.242	383.5
553.455	372.5
553.667	382.5
553.88	364.5
554.093	387.5
554.306	385.5
554.519	366.5
554.732	366.5
554.944	363.5
555.157	343.5
555.37	341.5
555.583	359.5
555.795	339.5
556.008	345.5
556.221	340.5
556.433	319.5
556.646	339.5
556.859	335.5
557.071	314.5
557.284	324.5
557.496	326.5
557.709	320.5
557.921	323.5
558.134	319.5
558.346	334.5
558.559	321.5
558.771	298.5
558.984	313.5
559.196	313.5
559.409	311.5
559.621	306.5
559.833	314.5
560.046	296.5
560.258	308.5
560.47	313.5
560.683	317.5
560.895	305.5
561.107	307.5
561.32	297.5
561.532	289.5
561.744	314.5
561.956	324.5
562.168	321.5
562.381	313.5
562.593	331.5
562.805	337.5
563.017	327.5
563.229	321.5
563.441	324.5
563.653	295.5
563.865	338.5
564.077	325.5
564.289	330.5
564.501	312.5
564.713	319.5
564.925	340.5
565.137	344.5
565.349	332.5
565.561	351.5
565.773	341.5
565.985	379.5
566.197	373.5
566.408	397.5
566.62	428.5
566.832	428.5
567.044	445.5
567.255	428.5
567.467	430.5
567.679	457.5
567.891	478.5
568.102	474.5
568.314	457.5
568.526	410.5
568.737	419.5
568.949	380.5
569.161	366.5
569.372	336.5
569.584	358.5
569.795	339.5
570.007	326.5
570.218	352.5
570.43	339.5
570.641	332.5
570.853	321.5
571.064	320.5
571.276	319.5
571.487	332.5
571.698	297.5
571.91	314.5
572.121	306.5
572.333	289.5
572.544	308.5
572.755	291.5
572.966	283.5
573.178	285.5
573.389	295.5
573.6	281.5
573.811	280.5
574.023	271.5
574.234	273.5
574.445	273.5
574.656	282.5
574.867	282.5
575.078	276.5
575.289	277.5
575.501	272.5
575.712	275.5
575.923	259.5
576.134	278.5
576.345	289.5
576.556	268.5
576.767	246.5
576.978	248.5
577.188	275.5
577.399	269.5
577.61	263.5
577.821	258.5
578.032	273.5
578.243	290.5
578.454	399.5
578.665	301.5
578.875	264.5
579.086	261.5
579.297	260.5
579.508	255.5
579.718	265.5
579.929	232.5
580.14	257.5
580.35	268.5
580.561	248.5
580.772	245.5
580.982	261.5
581.193	251.5
581.403	257.5
581.614	261.5
581.825	243.5
582.035	242.5
582.246	259.5
582.456	253.5
582.667	244.5
582.877	243.5
583.087	249.5
583.298	241.5
583.508	235.5
583.719	248.5
583.929	246.5
584.139	235.5
584.35	228.5
584.56	244.5
584.77	234.5
584.981	231.5
585.191	241.5
585.401	236.5
585.611	235.5
585.821	251.5
586.032	249.5
586.242	243.5
586.452	222.5
586.662	225.5
586.872	234.5
587.082	246.5
587.292	249.5
587.502	241.5
587.713	261.5
587.923	237.5
588.133	246.5
588.343	243.5
588.553	230.5
588.762	231.5
588.972	259.5
589.182	225.5
589.392	257.5
589.602	242.5
589.812	238.5
590.022	251.5
590.232	232.5
590.441	251.5
590.651	247.5
590.861	263.5
591.071	227.5
591.281	251.5
591.49	246.5
591.7	255.5
591.91	247.5
592.119	271.5
592.329	275.5
592.539	261.5
592.748	275.5
592.958	268.5
593.167	287.5
593.377	283.5
593.587	290.5
593.796	282.5
594.006	299.5
594.215	278.5
594.424	277.5
594.634	284.5
594.843	271.5
595.053	261.5
595.262	243.5
595.472	246.5
595.681	239.5
595.89	260.5
596.1	251.5
596.309	257.5
596.518	257.5
596.727	235.5
596.937	241.5
597.146	227.5
597.355	227.5
597.564	220.5
597.774	230.5
597.983	250.5
598.192	226.5
598.401	200.5
598.61	231.5
598.819	228.5
599.028	214.5
599.237	231.5
599.446	227.5
599.655	235.5
599.864	233.5
600.073	207.5
600.282	219.5
600.491	225.5
600.7	217.5
600.909	207.5
601.118	231.5
601.327	212.5
601.536	212.5
601.745	219.5
601.953	216.5
602.162	226.5
602.371	224.5
602.58	233.5
602.789	222.5
602.997	201.5
603.206	209.5
603.415	213.5
603.623	200.5
603.832	221.5
604.041	210.5
604.249	203.5
604.458	211.5
604.666	217.5
604.875	212.5
605.084	202.5
605.292	211.5
605.501	182.5
605.709	195.5
605.918	210.5
606.126	211.5
606.334	203.5
606.543	215.5
606.751	203.5
606.96	222.5
607.168	215.5
607.376	205.5
607.585	204.5
607.793	213.5
608.001	197.5
608.21	216.5
608.418	206.5
608.626	195.5
608.834	206.5
609.043	200.5
609.251	214.5
609.459	209.5
609.667	218.5
609.875	226.5
610.083	203.5
610.291	212.5
610.499	212.5
610.707	213.5
610.916	208.5
611.124	241.5
611.332	221.5
611.54	205.5
611.748	204.5
611.955	215.5
612.163	195.5
612.371	205.5
612.579	201.5
612.787	197.5
612.995	194.5
613.203	209.5
613.411	204.5
613.618	214.5
613.826	212.5
614.034	207.5
614.242	187.5
614.449	209.5
614.657	218.5
614.865	199.5
615.072	191.5
615.28	205.5
615.488	205.5
615.695	200.5
615.903	204.5
616.111	207.5
616.318	210.5
616.526	211.5
616.733	202.5
616.941	209.5
617.148	205.5
617.356	215.5
617.563	215.5
617.771	206.5
617.978	203.5
618.185	210.5
618.393	204.5
618.6	201.5
618.807	193.5
619.015	194.5
619.222	189.5
619.429	197.5
619.637	199.5
619.844	194.5
620.051	202.5
620.258	191.5
620.466	206.5
620.673	182.5
620.88	176.5
621.087	170.5
621.294	196.5
621.501	189.5
621.708	196.5
621.915	203.5
622.122	197.5
622.329	202.5
622.536	198.5
622.743	190.5
622.95	174.5
623.157	197.5
623.364	191.5
623.571	188.5
623.778	191.5
623.985	178.5
624.192	198.5
624.399	188.5
624.606	183.5
624.812	201.5
625.019	180.5
625.226	182.5
625.433	176.5
625.639	174.5
625.846	187.5
626.053	175.5
626.259	167.5
626.466	197.5
626.673	176.5
626.879	182.5
627.086	179.5
627.293	181.5
627.499	187.5
627.706	168.5
627.912	185.5
628.119	156.5
628.325	178.5
628.532	182.5
628.738	183.5
628.945	179.5
629.151	168.5
629.357	181.5
629.564	175.5
629.77	178.5
629.976	172.5
630.183	165.5
630.389	162.5
630.595	174.5
630.802	175.5
631.008	177.5
631.214	171.5
631.42	172.5
631.627	170.5
631.833	166.5
632.039	157.5
632.245	160.5
632.451	165.5
632.657	172.5
632.863	166.5
633.069	169.5
633.275	163.5
633.481	171.5
633.688	166.5
633.893	177.5
634.099	166.5
634.305	161.5
634.511	156.5
634.717	151.5
634.923	157.5
635.129	153.5
635.335	158.5
635.541	161.5
635.747	162.5
635.952	161.5
636.158	181.5
636.364	173.5
636.57	168.5
636.775	159.5
636.981	158.5
637.187	149.5
637.392	163.5
637.598	151.5
637.804	159.5
638.009	161.5
638.215	163.5
638.421	152.5
638.626	169.5
638.832	150.5
639.037	175.5
639.243	158.5
639.448	149.5
639.654	148.5
639.859	162.5
640.065	156.5
640.27	163.5
640.475	143.5
640.681	166.5
640.886	157.5
641.091	147.5
641.297	147.5
641.502	148.5
641.707	149.5
641.913	160.5
642.118	164.5
642.323	144.5
642.528	150.5
642.733	142.5
642.939	139.5
643.144	153.5
643.349	162.5
643.554	154.5
643.759	147.5
643.964	155.5
644.169	157.5
644.374	155.5
644.579	145.5
644.784	154.5
644.989	147.5
645.194	165.5
645.399	157.5
645.604	136.5
645.809	151.5
646.014	158.5
646.219	148.5
646.423	153.5
646.628	151.5
646.833	147.5
647.038	162.5
647.243	149.5
647.447	134.5
647.652	143.5
647.857	153.5
648.062	153.5
648.266	162.5
648.471	159.5
648.676	150.5
648.88	153.5
649.085	153.5
649.289	156.5
649.494	165.5
649.698	157.5
649.903	165.5
650.107	156.5
650.312	151.5
650.516	138.5
650.721	146.5
650.925	138.5
651.13	150.5
651.334	141.5
651.539	148.5
651.743	121.5
651.947	146.5
652.152	153.5
652.356	137.5
652.56	142.5
652.764	133.5
652.969	134.5
653.173	140.5
653.377	134.5
653.581	120.5
653.785	131.5
653.99	123.5
654.194	126.5
654.398	126.5
654.602	133.5
654.806	115.5
655.01	137.5
655.214	130.5
655.418	119.5
655.622	127.5
655.826	133.5
656.03	133.5
656.234	142.5
656.438	107.5
656.642	114.5
656.846	133.5
657.049	138.5
657.253	123.5
657.457	107.5
657.661	118.5
657.865	108.5
658.068	100.5
658.272	93.5
658.476	106.5
658.68	114.5
658.883	79.5
659.087	98.5
659.291	109.5
659.494	94.5
659.698	111.5
659.901	96.5
660.105	107.5
660.309	97.5
660.512	89.5
660.716	95.5
660.919	99.5
661.123	83.5
661.326	108.5
661.53	89.5
661.733	84.5
661.936	82.5
662.14	84.5
662.343	81.5
662.546	75.5
662.75	91.5
662.953	92.5
663.156	81.5
663.36	82.5
663.563	90.5
663.766	97.5
663.969	91.5
664.173	91.5
664.376	97.5
664.579	90.5
664.782	87.5
664.985	91.5
665.188	99.5
665.391	85.5
665.594	74.5
665.797	73.5
666	71.5
666.203	74.5
666.406	80.5
666.609	85.5
666.812	87.5
667.015	90.5
667.218	88.5
667.421	92.5
667.624	97.5
667.827	86.5
668.03	97.5
668.232	81.5
668.435	76.5
668.638	85.5
668.841	78.5
669.043	83.5
669.246	79.5
669.449	97.5
669.651	83.5
669.854	74.5
670.057	76.5
670.259	67.5
670.462	87.5
670.665	77.5
670.867	75.5
671.07	78.5
671.272	72.5
671.475	73.5
671.677	85.5
671.88	79.5
672.082	81.5
672.284	93.5
672.487	89.5
672.689	79.5
672.892	77.5
