Data from Location1.07152019.Energy5.Lamp.07192019.3%Agarose_HRD10591_14-33-30-017.txt Node
Date: Fri Jul 19 14:33:30 EDT 2019
User: cochatt
Spectrometer: HR+D1059
Trigger mode: 1
Integration Time (sec): 1.000000E-1
Scans to average: 1
Electric dark correction enabled: true
Nonlinearity correction enabled: false
Boxcar width: 0
XAxis mode: Wavelengths
Number of Pixels in Spectrum: 2048
>>>>>Begin Spectral Data<<<<<
223.165	-15.69
223.4	-15.69
223.635	-15.69
223.869	-28.69
224.104	-11.69
224.338	-1.69
224.573	-9.69
224.808	0.31
225.042	-10.69
225.277	-13.69
225.511	-17.69
225.746	4.31
225.98	7.31
226.215	3.31
226.449	12.31
226.683	27.31
226.918	21.31
227.152	33.31
227.387	37.31
227.621	40.31
227.856	52.31
228.09	51.31
228.324	62.31
228.559	53.31
228.793	57.31
229.027	67.31
229.262	69.31
229.496	68.31
229.73	71.31
229.964	83.31
230.199	81.31
230.433	76.31
230.667	76.31
230.901	80.31
231.136	76.31
231.37	77.31
231.604	90.31
231.838	89.31
232.072	93.31
232.306	90.31
232.541	89.31
232.775	94.31
233.009	92.31
233.243	81.31
233.477	90.31
233.711	88.31
233.945	86.31
234.179	88.31
234.413	89.31
234.647	94.31
234.881	85.31
235.115	81.31
235.349	87.31
235.583	74.31
235.817	80.31
236.051	91.31
236.285	83.31
236.519	94.31
236.753	87.31
236.987	91.31
237.221	81.31
237.455	100.31
237.689	86.31
237.922	85.31
238.156	81.31
238.39	79.31
238.624	73.31
238.858	65.31
239.091	92.31
239.325	74.31
239.559	74.31
239.793	82.31
240.027	87.31
240.26	76.31
240.494	74.31
240.728	73.31
240.961	88.31
241.195	83.31
241.429	96.31
241.662	86.31
241.896	77.31
242.13	93.31
242.363	93.31
242.597	80.31
242.83	84.31
243.064	91.31
243.298	82.31
243.531	78.31
243.765	76.31
243.998	92.31
244.232	103.31
244.465	93.31
244.699	85.31
244.932	77.31
245.166	72.31
245.399	89.31
245.633	100.31
245.866	81.31
246.099	83.31
246.333	87.31
246.566	90.31
246.8	90.31
247.033	86.31
247.266	75.31
247.5	99.31
247.733	74.31
247.966	92.31
248.2	84.31
248.433	80.31
248.666	87.31
248.899	86.31
249.133	74.31
249.366	91.31
249.599	92.31
249.832	76.31
250.066	100.31
250.299	80.31
250.532	86.31
250.765	97.31
250.998	97.31
251.231	85.31
251.465	82.31
251.698	81.31
251.931	71.31
252.164	78.31
252.397	94.31
252.63	79.31
252.863	74.31
253.096	73.31
253.329	97.31
253.562	84.31
253.795	84.31
254.028	79.31
254.261	77.31
254.494	83.31
254.727	85.31
254.96	82.31
255.193	92.31
255.426	95.31
255.659	86.31
255.892	81.31
256.124	85.31
256.357	83.31
256.59	90.31
256.823	92.31
257.056	80.31
257.289	79.31
257.521	82.31
257.754	76.31
257.987	79.31
258.22	101.31
258.452	77.31
258.685	88.31
258.918	85.31
259.151	88.31
259.383	87.31
259.616	96.31
259.849	91.31
260.081	89.31
260.314	86.31
260.547	102.31
260.779	90.31
261.012	82.31
261.244	81.31
261.477	86.31
261.71	79.31
261.942	86.31
262.175	98.31
262.407	88.31
262.64	80.31
262.872	90.31
263.105	89.31
263.337	98.31
263.57	81.31
263.802	70.31
264.035	91.31
264.267	88.31
264.499	90.31
264.732	99.31
264.964	90.31
265.197	93.31
265.429	112.31
265.661	92.31
265.894	89.31
266.126	97.31
266.358	92.31
266.591	86.31
266.823	86.31
267.055	91.31
267.287	92.31
267.52	64.31
267.752	78.31
267.984	90.31
268.216	91.31
268.448	91.31
268.681	93.31
268.913	100.31
269.145	95.31
269.377	96.31
269.609	97.31
269.841	105.31
270.073	103.31
270.306	86.31
270.538	93.31
270.77	95.31
271.002	90.31
271.234	104.31
271.466	93.31
271.698	81.31
271.93	82.31
272.162	86.31
272.394	105.31
272.626	100.31
272.858	86.31
273.09	80.31
273.322	92.31
273.553	88.31
273.785	78.31
274.017	90.31
274.249	83.31
274.481	104.31
274.713	97.31
274.945	90.31
275.176	89.31
275.408	83.31
275.64	84.31
275.872	76.31
276.104	77.31
276.335	85.31
276.567	94.31
276.799	86.31
277.031	85.31
277.262	90.31
277.494	90.31
277.726	98.31
277.957	83.31
278.189	92.31
278.421	88.31
278.652	81.31
278.884	96.31
279.115	88.31
279.347	97.31
279.579	75.31
279.81	88.31
280.042	81.31
280.273	87.31
280.505	96.31
280.736	85.31
280.968	87.31
281.199	84.31
281.431	100.31
281.662	92.31
281.894	95.31
282.125	88.31
282.356	75.31
282.588	95.31
282.819	74.31
283.051	88.31
283.282	93.31
283.513	96.31
283.745	81.31
283.976	90.31
284.207	82.31
284.439	71.31
284.67	91.31
284.901	107.31
285.132	88.31
285.364	78.31
285.595	101.31
285.826	89.31
286.057	108.31
286.288	88.31
286.52	77.31
286.751	86.31
286.982	86.31
287.213	80.31
287.444	84.31
287.675	88.31
287.906	105.31
288.138	98.31
288.369	83.31
288.6	88.31
288.831	100.31
289.062	84.31
289.293	101.31
289.524	100.31
289.755	93.31
289.986	99.31
290.217	89.31
290.448	90.31
290.679	104.31
290.91	110.31
291.141	96.31
291.371	90.31
291.602	96.31
291.833	98.31
292.064	84.31
292.295	89.31
292.526	97.31
292.757	91.31
292.987	87.31
293.218	88.31
293.449	98.31
293.68	77.31
293.91	84.31
294.141	81.31
294.372	90.31
294.603	86.31
294.833	98.31
295.064	76.31
295.295	87.31
295.525	82.31
295.756	89.31
295.987	92.31
296.217	85.31
296.448	88.31
296.679	84.31
296.909	79.31
297.14	91.31
297.37	88.31
297.601	88.31
297.831	101.31
298.062	95.31
298.292	81.31
298.523	87.31
298.753	85.31
298.984	85.31
299.214	85.31
299.445	87.31
299.675	90.31
299.905	99.31
300.136	84.31
300.366	80.31
300.597	101.31
300.827	88.31
301.057	87.31
301.288	91.31
301.518	83.31
301.748	84.31
301.979	91.31
302.209	90.31
302.439	88.31
302.669	89.31
302.9	82.31
303.13	84.31
303.36	85.31
303.59	92.31
303.82	109.31
304.051	87.31
304.281	87.31
304.511	102.31
304.741	93.31
304.971	76.31
305.201	83.31
305.431	81.31
305.661	83.31
305.891	96.31
306.121	89.31
306.352	94.31
306.582	90.31
306.812	99.31
307.042	97.31
307.272	99.31
307.502	81.31
307.731	101.31
307.961	89.31
308.191	87.31
308.421	94.31
308.651	92.31
308.881	77.31
309.111	81.31
309.341	68.31
309.571	81.31
309.8	89.31
310.03	89.31
310.26	85.31
310.49	93.31
310.72	82.31
310.949	91.31
311.179	103.31
311.409	89.31
311.639	87.31
311.868	96.31
312.098	93.31
312.328	104.31
312.557	84.31
312.787	85.31
313.017	94.31
313.246	106.31
313.476	94.31
313.706	94.31
313.935	96.31
314.165	92.31
314.394	95.31
314.624	86.31
314.853	93.31
315.083	107.31
315.312	86.31
315.542	99.31
315.771	92.31
316.001	87.31
316.23	97.31
316.46	90.31
316.689	77.31
316.919	79.31
317.148	98.31
317.377	96.31
317.607	99.31
317.836	106.31
318.065	94.31
318.295	101.31
318.524	101.31
318.753	89.31
318.983	97.31
319.212	84.31
319.441	107.31
319.67	89.31
319.9	86.31
320.129	91.31
320.358	88.31
320.587	92.31
320.816	82.31
321.046	88.31
321.275	109.31
321.504	107.31
321.733	88.31
321.962	83.31
322.191	94.31
322.42	89.31
322.649	88.31
322.878	94.31
323.108	88.31
323.337	68.31
323.566	91.31
323.795	86.31
324.024	74.31
324.253	90.31
324.482	102.31
324.71	82.31
324.939	97.31
325.168	89.31
325.397	79.31
325.626	100.31
325.855	90.31
326.084	87.31
326.313	96.31
326.542	85.31
326.77	86.31
326.999	91.31
327.228	81.31
327.457	96.31
327.686	87.31
327.914	97.31
328.143	97.31
328.372	85.31
328.6	89.31
328.829	85.31
329.058	94.31
329.287	99.31
329.515	90.31
329.744	97.31
329.972	92.31
330.201	84.31
330.43	93.31
330.658	94.31
330.887	86.31
331.115	95.31
331.344	83.31
331.572	97.31
331.801	99.31
332.03	82.31
332.258	83.31
332.486	92.31
332.715	83.31
332.943	80.31
333.172	94.31
333.4	96.31
333.629	76.31
333.857	84.31
334.085	96.31
334.314	101.31
334.542	96.31
334.771	82.31
334.999	86.31
335.227	96.31
335.455	97.31
335.684	108.31
335.912	85.31
336.14	91.31
336.369	83.31
336.597	87.31
336.825	94.31
337.053	92.31
337.281	89.31
337.51	80.31
337.738	94.31
337.966	93.31
338.194	98.31
338.422	96.31
338.65	110.31
338.878	102.31
339.106	91.31
339.334	84.31
339.562	104.31
339.79	97.31
340.018	94.31
340.246	90.31
340.474	93.31
340.702	91.31
340.93	93.31
341.158	98.31
341.386	92.31
341.614	94.31
341.842	89.31
342.07	85.31
342.298	99.31
342.526	105.31
342.754	105.31
342.981	98.31
343.209	88.31
343.437	86.31
343.665	89.31
343.893	100.31
344.12	86.31
344.348	82.31
344.576	86.31
344.804	94.31
345.031	71.31
345.259	96.31
345.487	85.31
345.714	101.31
345.942	93.31
346.17	100.31
346.397	86.31
346.625	93.31
346.853	98.31
347.08	91.31
347.308	97.31
347.535	105.31
347.763	97.31
347.99	95.31
348.218	84.31
348.445	81.31
348.673	84.31
348.9	87.31
349.128	93.31
349.355	85.31
349.583	97.31
349.81	94.31
350.037	98.31
350.265	97.31
350.492	107.31
350.72	81.31
350.947	102.31
351.174	99.31
351.402	79.31
351.629	88.31
351.856	93.31
352.083	94.31
352.311	92.31
352.538	81.31
352.765	91.31
352.992	105.31
353.22	80.31
353.447	89.31
353.674	96.31
353.901	100.31
354.128	90.31
354.355	93.31
354.583	89.31
354.81	88.31
355.037	100.31
355.264	83.31
355.491	85.31
355.718	96.31
355.945	93.31
356.172	94.31
356.399	87.31
356.626	97.31
356.853	96.31
357.08	87.31
357.307	96.31
357.534	87.31
357.761	81.31
357.988	85.31
358.215	93.31
358.441	92.31
358.668	90.31
358.895	92.31
359.122	98.31
359.349	84.31
359.576	96.31
359.802	78.31
360.029	81.31
360.256	95.31
360.483	91.31
360.709	95.31
360.936	82.31
361.163	87.31
361.39	85.31
361.616	102.31
361.843	88.31
362.07	95.31
362.296	97.31
362.523	85.31
362.749	99.31
362.976	75.31
363.203	99.31
363.429	96.31
363.656	90.31
363.882	83.31
364.109	93.31
364.335	96.31
364.562	91.31
364.788	80.31
365.015	94.31
365.241	78.31
365.468	84.31
365.694	91.31
365.92	90.31
366.147	91.31
366.373	74.31
366.599	96.31
366.826	92.31
367.052	101.31
367.278	85.31
367.505	96.31
367.731	98.31
367.957	79.31
368.184	94.31
368.41	104.31
368.636	105.31
368.862	91.31
369.089	113.31
369.315	114.31
369.541	94.31
369.767	97.31
369.993	94.31
370.219	97.31
370.445	99.31
370.672	109.31
370.898	90.31
371.124	83.31
371.35	99.31
371.576	101.31
371.802	82.31
372.028	108.31
372.254	89.31
372.48	115.31
372.706	96.31
372.932	89.31
373.158	112.31
373.384	109.31
373.61	107.31
373.835	107.31
374.061	108.31
374.287	113.31
374.513	109.31
374.739	91.31
374.965	99.31
375.191	113.31
375.416	88.31
375.642	97.31
375.868	96.31
376.094	104.31
376.319	117.31
376.545	109.31
376.771	79.31
376.997	93.31
377.222	96.31
377.448	99.31
377.674	98.31
377.899	104.31
378.125	106.31
378.35	104.31
378.576	94.31
378.802	105.31
379.027	101.31
379.253	116.31
379.478	100.31
379.704	109.31
379.929	100.31
380.155	81.31
380.38	93.31
380.606	98.31
380.831	92.31
381.057	104.31
381.282	100.31
381.507	102.31
381.733	109.31
381.958	91.31
382.184	99.31
382.409	105.31
382.634	103.31
382.86	105.31
383.085	100.31
383.31	115.31
383.535	108.31
383.761	106.31
383.986	92.31
384.211	97.31
384.436	99.31
384.662	96.31
384.887	110.31
385.112	114.31
385.337	105.31
385.562	104.31
385.787	102.31
386.013	117.31
386.238	108.31
386.463	113.31
386.688	94.31
386.913	112.31
387.138	97.31
387.363	102.31
387.588	104.31
387.813	115.31
388.038	102.31
388.263	98.31
388.488	100.31
388.713	104.31
388.938	98.31
389.163	109.31
389.387	99.31
389.612	100.31
389.837	95.31
390.062	104.31
390.287	106.31
390.512	97.31
390.736	113.31
390.961	95.31
391.186	101.31
391.411	107.31
391.636	109.31
391.86	116.31
392.085	117.31
392.31	109.31
392.534	105.31
392.759	98.31
392.984	101.31
393.208	110.31
393.433	106.31
393.658	117.31
393.882	112.31
394.107	111.31
394.331	112.31
394.556	99.31
394.78	113.31
395.005	115.31
395.229	129.31
395.454	121.31
395.678	118.31
395.903	122.31
396.127	100.31
396.352	123.31
396.576	112.31
396.801	120.31
397.025	119.31
397.249	111.31
397.474	122.31
397.698	128.31
397.922	112.31
398.147	119.31
398.371	124.31
398.595	124.31
398.82	102.31
399.044	120.31
399.268	102.31
399.492	120.31
399.717	122.31
399.941	120.31
400.165	115.31
400.389	124.31
400.613	124.31
400.837	134.31
401.062	116.31
401.286	115.31
401.51	123.31
401.734	132.31
401.958	111.31
402.182	114.31
402.406	126.31
402.63	124.31
402.854	114.31
403.078	123.31
403.302	114.31
403.526	130.31
403.75	132.31
403.974	121.31
404.198	136.31
404.422	133.31
404.645	133.31
404.869	117.31
405.093	116.31
405.317	125.31
405.541	128.31
405.765	123.31
405.988	132.31
406.212	126.31
406.436	118.31
406.66	120.31
406.883	128.31
407.107	136.31
407.331	128.31
407.555	128.31
407.778	129.31
408.002	135.31
408.226	105.31
408.449	122.31
408.673	110.31
408.896	123.31
409.12	117.31
409.344	132.31
409.567	134.31
409.791	130.31
410.014	145.31
410.238	122.31
410.461	115.31
410.685	130.31
410.908	117.31
411.132	118.31
411.355	123.31
411.578	136.31
411.802	128.31
412.025	115.31
412.249	124.31
412.472	136.31
412.695	123.31
412.919	124.31
413.142	115.31
413.365	124.31
413.589	118.31
413.812	136.31
414.035	130.31
414.258	114.31
414.482	128.31
414.705	130.31
414.928	144.31
415.151	134.31
415.374	138.31
415.597	133.31
415.821	131.31
416.044	115.31
416.267	130.31
416.49	119.31
416.713	115.31
416.936	122.31
417.159	131.31
417.382	140.31
417.605	122.31
417.828	132.31
418.051	128.31
418.274	131.31
418.497	144.31
418.72	144.31
418.943	134.31
419.166	133.31
419.389	145.31
419.611	146.31
419.834	134.31
420.057	132.31
420.28	140.31
420.503	141.31
420.726	132.31
420.948	130.31
421.171	133.31
421.394	133.31
421.617	142.31
421.839	144.31
422.062	147.31
422.285	129.31
422.507	132.31
422.73	131.31
422.953	140.31
423.175	139.31
423.398	145.31
423.621	155.31
423.843	136.31
424.066	148.31
424.288	136.31
424.511	142.31
424.733	151.31
424.956	162.31
425.178	154.31
425.401	146.31
425.623	142.31
425.846	155.31
426.068	138.31
426.291	138.31
426.513	130.31
426.735	132.31
426.958	116.31
427.18	130.31
427.402	128.31
427.625	139.31
427.847	130.31
428.069	129.31
428.292	129.31
428.514	124.31
428.736	114.31
428.958	122.31
429.181	132.31
429.403	135.31
429.625	140.31
429.847	131.31
430.069	136.31
430.292	136.31
430.514	123.31
430.736	127.31
430.958	130.31
431.18	135.31
431.402	138.31
431.624	133.31
431.846	112.31
432.068	114.31
432.29	92.31
432.512	131.31
432.734	121.31
432.956	133.31
433.178	141.31
433.4	145.31
433.622	144.31
433.844	148.31
434.066	136.31
434.287	118.31
434.509	108.31
434.731	108.31
434.953	117.31
435.175	131.31
435.397	120.31
435.618	125.31
435.84	121.31
436.062	128.31
436.284	125.31
436.505	124.31
436.727	127.31
436.949	128.31
437.17	131.31
437.392	134.31
437.614	126.31
437.835	111.31
438.057	103.31
438.278	124.31
438.5	134.31
438.721	114.31
438.943	144.31
439.165	139.31
439.386	137.31
439.608	151.31
439.829	154.31
440.05	153.31
440.272	136.31
440.493	153.31
440.715	144.31
440.936	144.31
441.158	151.31
441.379	137.31
441.6	154.31
441.822	145.31
442.043	153.31
442.264	140.31
442.486	147.31
442.707	138.31
442.928	139.31
443.149	152.31
443.371	149.31
443.592	149.31
443.813	139.31
444.034	143.31
444.255	154.31
444.476	152.31
444.698	137.31
444.919	151.31
445.14	235.31
445.361	189.31
445.582	161.31
445.803	152.31
446.024	153.31
446.245	162.31
446.466	165.31
446.687	152.31
446.908	177.31
447.129	153.31
447.35	156.31
447.571	163.31
447.792	141.31
448.013	148.31
448.234	152.31
448.455	152.31
448.675	145.31
448.896	148.31
449.117	149.31
449.338	140.31
449.559	145.31
449.779	134.31
450	148.31
450.221	142.31
450.442	130.31
450.662	142.31
450.883	138.31
451.104	137.31
451.324	129.31
451.545	124.31
451.766	128.31
451.986	129.31
452.207	131.31
452.428	145.31
452.648	125.31
452.869	123.31
453.089	116.31
453.31	109.31
453.53	105.31
453.751	109.31
453.971	100.31
454.192	106.31
454.412	109.31
454.633	130.31
454.853	110.31
455.073	134.31
455.294	129.31
455.514	131.31
455.734	115.31
455.955	120.31
456.175	103.31
456.395	122.31
456.616	114.31
456.836	119.31
457.056	118.31
457.276	110.31
457.497	113.31
457.717	98.31
457.937	116.31
458.157	127.31
458.377	110.31
458.598	113.31
458.818	100.31
459.038	98.31
459.258	108.31
459.478	114.31
459.698	112.31
459.918	96.31
460.138	122.31
460.358	110.31
460.578	121.31
460.798	130.31
461.018	111.31
461.238	112.31
461.458	122.31
461.678	123.31
461.898	128.31
462.118	123.31
462.338	111.31
462.558	130.31
462.777	123.31
462.997	101.31
463.217	118.31
463.437	118.31
463.657	112.31
463.876	117.31
464.096	125.31
464.316	113.31
464.536	113.31
464.755	122.31
464.975	125.31
465.195	122.31
465.414	122.31
465.634	124.31
465.854	131.31
466.073	139.31
466.293	138.31
466.512	129.31
466.732	133.31
466.951	143.31
467.171	132.31
467.391	133.31
467.61	138.31
467.829	136.31
468.049	130.31
468.268	134.31
468.488	139.31
468.707	138.31
468.927	136.31
469.146	126.31
469.365	147.31
469.585	146.31
469.804	156.31
470.023	136.31
470.243	162.31
470.462	149.31
470.681	154.31
470.901	149.31
471.12	140.31
471.339	162.31
471.558	153.31
471.777	137.31
471.997	137.31
472.216	141.31
472.435	128.31
472.654	114.31
472.873	108.31
473.092	142.31
473.311	124.31
473.53	143.31
473.749	122.31
473.968	129.31
474.187	130.31
474.406	123.31
474.625	128.31
474.844	144.31
475.063	136.31
475.282	134.31
475.501	124.31
475.72	130.31
475.939	134.31
476.158	139.31
476.377	129.31
476.596	133.31
476.814	112.31
477.033	104.31
477.252	117.31
477.471	131.31
477.69	154.31
477.908	142.31
478.127	152.31
478.346	149.31
478.564	129.31
478.783	136.31
479.002	134.31
479.22	140.31
479.439	136.31
479.658	134.31
479.876	115.31
480.095	134.31
480.313	134.31
480.532	121.31
480.751	117.31
480.969	122.31
481.188	91.31
481.406	91.31
481.624	103.31
481.843	103.31
482.061	122.31
482.28	130.31
482.498	125.31
482.717	106.31
482.935	129.31
483.153	140.31
483.372	160.31
483.59	157.31
483.808	158.31
484.027	138.31
484.245	144.31
484.463	141.31
484.681	164.31
484.9	152.31
485.118	130.31
485.336	120.31
485.554	109.31
485.772	92.31
485.99	121.31
486.209	109.31
486.427	114.31
486.645	136.31
486.863	168.31
487.081	141.31
487.299	130.31
487.517	140.31
487.735	170.31
487.953	181.31
488.171	184.31
488.389	180.31
488.607	154.31
488.825	148.31
489.043	146.31
489.261	144.31
489.479	133.31
489.696	147.31
489.914	134.31
490.132	145.31
490.35	163.31
490.568	157.31
490.786	169.31
491.003	176.31
491.221	189.31
491.439	194.31
491.657	197.31
491.874	210.31
492.092	197.31
492.31	262.31
492.527	235.31
492.745	218.31
492.963	191.31
493.18	202.31
493.398	195.31
493.615	191.31
493.833	191.31
494.05	189.31
494.268	180.31
494.485	172.31
494.703	168.31
494.92	173.31
495.138	170.31
495.355	179.31
495.573	167.31
495.79	193.31
496.008	176.31
496.225	176.31
496.442	143.31
496.66	171.31
496.877	177.31
497.094	180.31
497.312	172.31
497.529	174.31
497.746	149.31
497.963	150.31
498.181	141.31
498.398	135.31
498.615	125.31
498.832	141.31
499.049	129.31
499.267	120.31
499.484	124.31
499.701	137.31
499.918	131.31
500.135	136.31
500.352	140.31
500.569	158.31
500.786	150.31
501.003	156.31
501.22	140.31
501.437	155.31
501.654	153.31
501.871	148.31
502.088	125.31
502.305	140.31
502.522	135.31
502.739	140.31
502.956	115.31
503.172	125.31
503.389	114.31
503.606	126.31
503.823	124.31
504.04	128.31
504.256	133.31
504.473	127.31
504.69	133.31
504.907	120.31
505.123	128.31
505.34	131.31
505.557	126.31
505.773	133.31
505.99	120.31
506.207	112.31
506.423	126.31
506.64	147.31
506.856	121.31
507.073	132.31
507.289	122.31
507.506	109.31
507.722	124.31
507.939	146.31
508.155	125.31
508.372	124.31
508.588	122.31
508.805	124.31
509.021	114.31
509.238	112.31
509.454	99.31
509.67	123.31
509.887	104.31
510.103	90.31
510.319	110.31
510.536	87.31
510.752	99.31
510.968	98.31
511.184	80.31
511.401	114.31
511.617	110.31
511.833	89.31
512.049	92.31
512.265	99.31
512.481	88.31
512.698	92.31
512.914	93.31
513.13	90.31
513.346	109.31
513.562	89.31
513.778	104.31
513.994	104.31
514.21	111.31
514.426	108.31
514.642	104.31
514.858	101.31
515.074	106.31
515.29	99.31
515.506	93.31
515.721	107.31
515.937	111.31
516.153	97.31
516.369	102.31
516.585	94.31
516.801	96.31
517.016	102.31
517.232	86.31
517.448	109.31
517.664	118.31
517.879	95.31
518.095	109.31
518.311	113.31
518.527	95.31
518.742	101.31
518.958	102.31
519.173	125.31
519.389	121.31
519.605	116.31
519.82	106.31
520.036	115.31
520.251	104.31
520.467	112.31
520.682	105.31
520.898	101.31
521.113	89.31
521.329	80.31
521.544	106.31
521.76	96.31
521.975	90.31
522.19	94.31
522.406	108.31
522.621	94.31
522.836	107.31
523.052	101.31
523.267	125.31
523.482	102.31
523.698	110.31
523.913	125.31
524.128	132.31
524.343	130.31
524.559	124.31
524.774	124.31
524.989	128.31
525.204	121.31
525.419	132.31
525.634	122.31
525.849	112.31
526.064	106.31
526.28	105.31
526.495	98.31
526.71	104.31
526.925	81.31
527.14	93.31
527.355	100.31
527.57	94.31
527.785	101.31
527.999	107.31
528.214	89.31
528.429	119.31
528.644	127.31
528.859	139.31
529.074	153.31
529.289	161.31
529.503	175.31
529.718	146.31
529.933	126.31
530.148	113.31
530.363	96.31
530.577	92.31
530.792	100.31
531.007	86.31
531.221	92.31
531.436	86.31
531.651	95.31
531.865	85.31
532.08	83.31
532.295	90.31
532.509	92.31
532.724	89.31
532.938	113.31
533.153	108.31
533.367	125.31
533.582	120.31
533.796	112.31
534.011	129.31
534.225	105.31
534.44	96.31
534.654	96.31
534.868	115.31
535.083	120.31
535.297	111.31
535.511	108.31
535.726	110.31
535.94	99.31
536.154	92.31
536.369	91.31
536.583	88.31
536.797	109.31
537.011	75.31
537.225	89.31
537.44	82.31
537.654	89.31
537.868	95.31
538.082	95.31
538.296	98.31
538.51	104.31
538.724	116.31
538.938	123.31
539.153	144.31
539.367	127.31
539.581	129.31
539.795	113.31
540.009	120.31
540.222	117.31
540.436	116.31
540.65	112.31
540.864	138.31
541.078	138.31
541.292	149.31
541.506	167.31
541.72	170.31
541.934	214.31
542.147	197.31
542.361	180.31
542.575	176.31
542.789	157.31
543.002	143.31
543.216	137.31
543.43	136.31
543.644	138.31
543.857	143.31
544.071	168.31
544.285	166.31
544.498	165.31
544.712	157.31
544.925	158.31
545.139	171.31
545.352	162.31
545.566	150.31
545.779	162.31
545.993	179.31
546.206	166.31
546.42	153.31
546.633	169.31
546.847	166.31
547.06	173.31
547.274	162.31
547.487	164.31
547.7	172.31
547.914	154.31
548.127	163.31
548.34	159.31
548.554	158.31
548.767	179.31
548.98	160.31
549.193	159.31
549.407	157.31
549.62	147.31
549.833	155.31
550.046	149.31
550.259	147.31
550.473	156.31
550.686	162.31
550.899	144.31
551.112	141.31
551.325	152.31
551.538	148.31
551.751	115.31
551.964	121.31
552.177	126.31
552.39	136.31
552.603	165.31
552.816	153.31
553.029	167.31
553.242	160.31
553.455	162.31
553.667	167.31
553.88	150.31
554.093	164.31
554.306	157.31
554.519	165.31
554.732	146.31
554.944	148.31
555.157	147.31
555.37	145.31
555.583	157.31
555.795	128.31
556.008	142.31
556.221	155.31
556.433	133.31
556.646	146.31
556.859	143.31
557.071	135.31
557.284	139.31
557.496	136.31
557.709	136.31
557.921	160.31
558.134	149.31
558.346	146.31
558.559	142.31
558.771	136.31
558.984	144.31
559.196	145.31
559.409	131.31
559.621	133.31
559.833	128.31
560.046	132.31
560.258	126.31
560.47	129.31
560.683	130.31
560.895	138.31
561.107	140.31
561.32	133.31
561.532	132.31
561.744	132.31
561.956	138.31
562.168	129.31
562.381	136.31
562.593	139.31
562.805	132.31
563.017	122.31
563.229	117.31
563.441	129.31
563.653	132.31
563.865	118.31
564.077	126.31
564.289	113.31
564.501	117.31
564.713	143.31
564.925	134.31
565.137	113.31
565.349	120.31
565.561	118.31
565.773	118.31
565.985	121.31
566.197	112.31
566.408	136.31
566.62	122.31
566.832	134.31
567.044	119.31
567.255	116.31
567.467	114.31
567.679	130.31
567.891	116.31
568.102	109.31
568.314	108.31
568.526	107.31
568.737	75.31
568.949	68.31
569.161	101.31
569.372	104.31
569.584	98.31
569.795	92.31
570.007	97.31
570.218	99.31
570.43	79.31
570.641	94.31
570.853	107.31
571.064	95.31
571.276	114.31
571.487	124.31
571.698	120.31
571.91	116.31
572.121	106.31
572.333	96.31
572.544	110.31
572.755	99.31
572.966	110.31
573.178	89.31
573.389	95.31
573.6	93.31
573.811	94.31
574.023	92.31
574.234	92.31
574.445	107.31
574.656	105.31
574.867	99.31
575.078	90.31
575.289	87.31
575.501	103.31
575.712	105.31
575.923	106.31
576.134	110.31
576.345	105.31
576.556	104.31
576.767	93.31
576.978	92.31
577.188	99.31
577.399	97.31
577.61	100.31
577.821	100.31
578.032	95.31
578.243	89.31
578.454	105.31
578.665	96.31
578.875	102.31
579.086	80.31
579.297	82.31
579.508	99.31
579.718	82.31
579.929	97.31
580.14	81.31
580.35	104.31
580.561	97.31
580.772	91.31
580.982	85.31
581.193	99.31
581.403	113.31
581.614	102.31
581.825	97.31
582.035	85.31
582.246	107.31
582.456	99.31
582.667	105.31
582.877	93.31
583.087	100.31
583.298	109.31
583.508	80.31
583.719	78.31
583.929	96.31
584.139	80.31
584.35	85.31
584.56	95.31
584.77	83.31
584.981	98.31
585.191	96.31
585.401	92.31
585.611	86.31
585.821	89.31
586.032	104.31
586.242	87.31
586.452	95.31
586.662	93.31
586.872	90.31
587.082	100.31
587.292	96.31
587.502	85.31
587.713	78.31
587.923	91.31
588.133	84.31
588.343	87.31
588.553	93.31
588.762	109.31
588.972	92.31
589.182	95.31
589.392	87.31
589.602	104.31
589.812	93.31
590.022	94.31
590.232	84.31
590.441	83.31
590.651	101.31
590.861	72.31
591.071	102.31
591.281	89.31
591.49	86.31
591.7	89.31
591.91	80.31
592.119	83.31
592.329	92.31
592.539	92.31
592.748	108.31
592.958	87.31
593.167	94.31
593.377	87.31
593.587	118.31
593.796	98.31
594.006	97.31
594.215	89.31
594.424	98.31
594.634	102.31
594.843	97.31
595.053	89.31
595.262	98.31
595.472	92.31
595.681	107.31
595.89	84.31
596.1	99.31
596.309	104.31
596.518	100.31
596.727	113.31
596.937	114.31
597.146	101.31
597.355	109.31
597.564	88.31
597.774	95.31
597.983	98.31
598.192	96.31
598.401	112.31
598.61	106.31
598.819	93.31
599.028	101.31
599.237	113.31
599.446	106.31
599.655	97.31
599.864	100.31
600.073	87.31
600.282	95.31
600.491	91.31
600.7	109.31
600.909	101.31
601.118	114.31
601.327	108.31
601.536	110.31
601.745	107.31
601.953	120.31
602.162	106.31
602.371	104.31
602.58	101.31
602.789	112.31
602.997	109.31
603.206	101.31
603.415	121.31
603.623	113.31
603.832	113.31
604.041	114.31
604.249	110.31
604.458	98.31
604.666	104.31
604.875	101.31
605.084	109.31
605.292	108.31
605.501	112.31
605.709	122.31
605.918	124.31
606.126	128.31
606.334	120.31
606.543	119.31
606.751	113.31
606.96	107.31
607.168	116.31
607.376	114.31
607.585	130.31
607.793	114.31
608.001	105.31
608.21	108.31
608.418	109.31
608.626	107.31
608.834	124.31
609.043	120.31
609.251	106.31
609.459	106.31
609.667	112.31
609.875	127.31
610.083	125.31
610.291	113.31
610.499	128.31
610.707	130.31
610.916	117.31
611.124	114.31
611.332	133.31
611.54	125.31
611.748	126.31
611.955	118.31
612.163	125.31
612.371	128.31
612.579	117.31
612.787	106.31
612.995	111.31
613.203	108.31
613.411	111.31
613.618	108.31
613.826	118.31
614.034	116.31
614.242	115.31
614.449	110.31
614.657	131.31
614.865	106.31
615.072	111.31
615.28	123.31
615.488	112.31
615.695	109.31
615.903	128.31
616.111	112.31
616.318	130.31
616.526	117.31
616.733	125.31
616.941	105.31
617.148	123.31
617.356	106.31
617.563	134.31
617.771	125.31
617.978	106.31
618.185	109.31
618.393	110.31
618.6	125.31
618.807	121.31
619.015	104.31
619.222	114.31
619.429	114.31
619.637	120.31
619.844	110.31
620.051	112.31
620.258	117.31
620.466	114.31
620.673	118.31
620.88	109.31
621.087	112.31
621.294	122.31
621.501	119.31
621.708	100.31
621.915	101.31
622.122	113.31
622.329	119.31
622.536	130.31
622.743	114.31
622.95	117.31
623.157	106.31
623.364	109.31
623.571	108.31
623.778	119.31
623.985	120.31
624.192	126.31
624.399	102.31
624.606	106.31
624.812	97.31
625.019	105.31
625.226	100.31
625.433	114.31
625.639	110.31
625.846	110.31
626.053	110.31
626.259	104.31
626.466	104.31
626.673	99.31
626.879	100.31
627.086	105.31
627.293	124.31
627.499	110.31
627.706	112.31
627.912	124.31
628.119	120.31
628.325	124.31
628.532	121.31
628.738	111.31
628.945	130.31
629.151	106.31
629.357	122.31
629.564	114.31
629.77	108.31
629.976	106.31
630.183	109.31
630.389	128.31
630.595	119.31
630.802	112.31
631.008	97.31
631.214	110.31
631.42	106.31
631.627	100.31
631.833	95.31
632.039	116.31
632.245	111.31
632.451	126.31
632.657	115.31
632.863	107.31
633.069	112.31
633.275	104.31
633.481	104.31
633.688	101.31
633.893	104.31
634.099	110.31
634.305	106.31
634.511	110.31
634.717	108.31
634.923	108.31
635.129	110.31
635.335	119.31
635.541	98.31
635.747	112.31
635.952	114.31
636.158	106.31
636.364	115.31
636.57	120.31
636.775	115.31
636.981	109.31
637.187	105.31
637.392	110.31
637.598	93.31
637.804	109.31
638.009	98.31
638.215	111.31
638.421	121.31
638.626	92.31
638.832	110.31
639.037	107.31
639.243	93.31
639.448	109.31
639.654	118.31
639.859	92.31
640.065	103.31
640.27	95.31
640.475	98.31
640.681	107.31
640.886	105.31
641.091	95.31
641.297	102.31
641.502	106.31
641.707	110.31
641.913	108.31
642.118	95.31
642.323	103.31
642.528	107.31
642.733	107.31
642.939	106.31
643.144	101.31
643.349	111.31
643.554	107.31
643.759	105.31
643.964	112.31
644.169	105.31
644.374	101.31
644.579	122.31
644.784	108.31
644.989	107.31
645.194	124.31
645.399	110.31
645.604	101.31
645.809	106.31
646.014	98.31
646.219	113.31
646.423	107.31
646.628	107.31
646.833	91.31
647.038	116.31
647.243	105.31
647.447	110.31
647.652	98.31
647.857	110.31
648.062	118.31
648.266	101.31
648.471	98.31
648.676	95.31
648.88	120.31
649.085	97.31
649.289	108.31
649.494	91.31
649.698	99.31
649.903	109.31
650.107	98.31
650.312	116.31
650.516	108.31
650.721	100.31
650.925	90.31
651.13	99.31
651.334	97.31
651.539	95.31
651.743	116.31
651.947	75.31
652.152	94.31
652.356	92.31
652.56	110.31
652.764	97.31
652.969	120.31
653.173	95.31
653.377	108.31
653.581	91.31
653.785	91.31
653.99	89.31
654.194	103.31
654.398	109.31
654.602	109.31
654.806	105.31
655.01	111.31
655.214	87.31
655.418	106.31
655.622	89.31
655.826	103.31
656.03	108.31
656.234	108.31
656.438	95.31
656.642	111.31
656.846	99.31
657.049	95.31
657.253	90.31
657.457	89.31
657.661	103.31
657.865	90.31
658.068	88.31
658.272	111.31
658.476	91.31
658.68	103.31
658.883	94.31
659.087	81.31
659.291	108.31
659.494	91.31
659.698	91.31
659.901	103.31
660.105	90.31
660.309	85.31
660.512	81.31
660.716	93.31
660.919	92.31
661.123	88.31
661.326	97.31
661.53	77.31
661.733	86.31
661.936	85.31
662.14	97.31
662.343	99.31
662.546	108.31
662.75	85.31
662.953	98.31
663.156	80.31
663.36	107.31
663.563	94.31
663.766	92.31
663.969	89.31
664.173	102.31
664.376	96.31
664.579	85.31
664.782	98.31
664.985	104.31
665.188	90.31
665.391	97.31
665.594	92.31
665.797	94.31
666	83.31
666.203	77.31
666.406	90.31
666.609	97.31
666.812	97.31
667.015	100.31
667.218	88.31
667.421	87.31
667.624	101.31
667.827	97.31
668.03	94.31
668.232	96.31
668.435	94.31
668.638	84.31
668.841	73.31
669.043	89.31
669.246	86.31
669.449	94.31
669.651	76.31
669.854	93.31
670.057	90.31
670.259	93.31
670.462	85.31
670.665	91.31
670.867	98.31
671.07	83.31
671.272	94.31
671.475	83.31
671.677	72.31
671.88	93.31
672.082	89.31
672.284	86.31
672.487	90.31
672.689	92.31
672.892	96.31
