Data from Location1.07152019.Energy5.Lamp.07192019.3%Agarose_HRD10591_14-31-44-015.txt Node
Date: Fri Jul 19 14:31:44 EDT 2019
User: cochatt
Spectrometer: HR+D1059
Trigger mode: 1
Integration Time (sec): 1.000000E-1
Scans to average: 1
Electric dark correction enabled: true
Nonlinearity correction enabled: false
Boxcar width: 0
XAxis mode: Wavelengths
Number of Pixels in Spectrum: 2048
>>>>>Begin Spectral Data<<<<<
223.165	-19
223.4	-19
223.635	-19
223.869	-17
224.104	-18
224.338	-5
224.573	-21
224.808	-9
225.042	-10
225.277	-8
225.511	9
225.746	-10
225.98	13
226.215	4
226.449	14
226.683	22
226.918	23
227.152	32
227.387	52
227.621	48
227.856	56
228.09	47
228.324	63
228.559	57
228.793	60
229.027	66
229.262	82
229.496	61
229.73	63
229.964	78
230.199	66
230.433	71
230.667	72
230.901	87
231.136	82
231.37	64
231.604	69
231.838	71
232.072	92
232.306	73
232.541	85
232.775	84
233.009	87
233.243	81
233.477	92
233.711	92
233.945	65
234.179	88
234.413	83
234.647	81
234.881	90
235.115	75
235.349	66
235.583	92
235.817	95
236.051	72
236.285	82
236.519	82
236.753	92
236.987	84
237.221	69
237.455	90
237.689	87
237.922	73
238.156	54
238.39	77
238.624	77
238.858	87
239.091	88
239.325	85
239.559	77
239.793	70
240.027	81
240.26	82
240.494	82
240.728	70
240.961	74
241.195	69
241.429	77
241.662	85
241.896	72
242.13	84
242.363	79
242.597	71
242.83	91
243.064	75
243.298	73
243.531	84
243.765	80
243.998	86
244.232	83
244.465	85
244.699	90
244.932	91
245.166	86
245.399	88
245.633	80
245.866	70
246.099	69
246.333	84
246.566	83
246.8	90
247.033	95
247.266	91
247.5	69
247.733	76
247.966	76
248.2	85
248.433	73
248.666	81
248.899	75
249.133	70
249.366	79
249.599	68
249.832	75
250.066	82
250.299	82
250.532	88
250.765	82
250.998	87
251.231	84
251.465	82
251.698	77
251.931	76
252.164	78
252.397	87
252.63	94
252.863	90
253.096	71
253.329	70
253.562	106
253.795	92
254.028	92
254.261	81
254.494	84
254.727	81
254.96	77
255.193	81
255.426	60
255.659	77
255.892	81
256.124	92
256.357	73
256.59	90
256.823	84
257.056	85
257.289	76
257.521	74
257.754	93
257.987	88
258.22	77
258.452	86
258.685	80
258.918	89
259.151	90
259.383	81
259.616	86
259.849	80
260.081	77
260.314	82
260.547	90
260.779	80
261.012	82
261.244	93
261.477	82
261.71	84
261.942	78
262.175	95
262.407	81
262.64	87
262.872	89
263.105	87
263.337	88
263.57	87
263.802	71
264.035	85
264.267	90
264.499	93
264.732	90
264.964	86
265.197	93
265.429	90
265.661	78
265.894	85
266.126	90
266.358	76
266.591	70
266.823	80
267.055	87
267.287	85
267.52	89
267.752	83
267.984	90
268.216	90
268.448	94
268.681	88
268.913	87
269.145	99
269.377	91
269.609	89
269.841	86
270.073	92
270.306	97
270.538	105
270.77	82
271.002	88
271.234	69
271.466	90
271.698	64
271.93	85
272.162	87
272.394	104
272.626	72
272.858	83
273.09	86
273.322	82
273.553	76
273.785	92
274.017	85
274.249	87
274.481	98
274.713	88
274.945	80
275.176	73
275.408	88
275.64	73
275.872	82
276.104	94
276.335	82
276.567	92
276.799	95
277.031	83
277.262	74
277.494	93
277.726	86
277.957	80
278.189	83
278.421	88
278.652	76
278.884	93
279.115	79
279.347	100
279.579	84
279.81	87
280.042	89
280.273	93
280.505	87
280.736	85
280.968	90
281.199	97
281.431	81
281.662	81
281.894	82
282.125	97
282.356	80
282.588	87
282.819	92
283.051	81
283.282	73
283.513	91
283.745	92
283.976	84
284.207	65
284.439	88
284.67	88
284.901	88
285.132	80
285.364	82
285.595	96
285.826	94
286.057	92
286.288	89
286.52	82
286.751	99
286.982	86
287.213	85
287.444	80
287.675	101
287.906	89
288.138	76
288.369	100
288.6	78
288.831	81
289.062	90
289.293	93
289.524	84
289.755	80
289.986	89
290.217	88
290.448	78
290.679	88
290.91	86
291.141	93
291.371	88
291.602	86
291.833	87
292.064	78
292.295	87
292.526	79
292.757	93
292.987	91
293.218	91
293.449	98
293.68	97
293.91	86
294.141	98
294.372	103
294.603	83
294.833	93
295.064	81
295.295	74
295.525	88
295.756	88
295.987	79
296.217	80
296.448	90
296.679	84
296.909	79
297.14	86
297.37	88
297.601	92
297.831	92
298.062	88
298.292	95
298.523	91
298.753	86
298.984	77
299.214	77
299.445	81
299.675	98
299.905	88
300.136	88
300.366	87
300.597	105
300.827	93
301.057	82
301.288	85
301.518	68
301.748	105
301.979	84
302.209	100
302.439	95
302.669	91
302.9	85
303.13	80
303.36	100
303.59	94
303.82	93
304.051	89
304.281	92
304.511	82
304.741	88
304.971	92
305.201	99
305.431	84
305.661	82
305.891	79
306.121	81
306.352	85
306.582	96
306.812	89
307.042	89
307.272	79
307.502	89
307.731	73
307.961	62
308.191	90
308.421	95
308.651	101
308.881	84
309.111	75
309.341	90
309.571	88
309.8	82
310.03	101
310.26	93
310.49	81
310.72	96
310.949	75
311.179	72
311.409	82
311.639	85
311.868	86
312.098	88
312.328	88
312.557	96
312.787	86
313.017	90
313.246	58
313.476	85
313.706	88
313.935	81
314.165	87
314.394	74
314.624	86
314.853	78
315.083	77
315.312	85
315.542	82
315.771	85
316.001	106
316.23	88
316.46	86
316.689	96
316.919	87
317.148	83
317.377	91
317.607	89
317.836	95
318.065	79
318.295	85
318.524	95
318.753	88
318.983	89
319.212	74
319.441	84
319.67	82
319.9	83
320.129	87
320.358	86
320.587	107
320.816	76
321.046	88
321.275	84
321.504	84
321.733	87
321.962	82
322.191	81
322.42	100
322.649	90
322.878	86
323.108	101
323.337	81
323.566	82
323.795	85
324.024	82
324.253	89
324.482	98
324.71	94
324.939	74
325.168	74
325.397	97
325.626	79
325.855	78
326.084	76
326.313	77
326.542	81
326.77	82
326.999	92
327.228	92
327.457	98
327.686	87
327.914	87
328.143	90
328.372	91
328.6	90
328.829	82
329.058	94
329.287	71
329.515	89
329.744	91
329.972	83
330.201	79
330.43	100
330.658	74
330.887	86
331.115	84
331.344	79
331.572	84
331.801	91
332.03	78
332.258	74
332.486	85
332.715	78
332.943	77
333.172	97
333.4	89
333.629	85
333.857	82
334.085	100
334.314	94
334.542	95
334.771	91
334.999	82
335.227	81
335.455	85
335.684	93
335.912	86
336.14	104
336.369	94
336.597	89
336.825	90
337.053	82
337.281	84
337.51	83
337.738	88
337.966	70
338.194	92
338.422	77
338.65	84
338.878	90
339.106	83
339.334	86
339.562	99
339.79	85
340.018	88
340.246	81
340.474	82
340.702	99
340.93	94
341.158	89
341.386	87
341.614	86
341.842	95
342.07	97
342.298	86
342.526	95
342.754	86
342.981	95
343.209	87
343.437	98
343.665	97
343.893	83
344.12	89
344.348	86
344.576	82
344.804	86
345.031	92
345.259	80
345.487	82
345.714	76
345.942	76
346.17	97
346.397	97
346.625	87
346.853	87
347.08	88
347.308	85
347.535	99
347.763	79
347.99	87
348.218	82
348.445	97
348.673	89
348.9	91
349.128	86
349.355	90
349.583	82
349.81	89
350.037	100
350.265	90
350.492	72
350.72	88
350.947	84
351.174	79
351.402	93
351.629	85
351.856	88
352.083	80
352.311	83
352.538	82
352.765	93
352.992	93
353.22	85
353.447	79
353.674	89
353.901	95
354.128	93
354.355	93
354.583	88
354.81	96
355.037	78
355.264	82
355.491	88
355.718	102
355.945	96
356.172	84
356.399	88
356.626	95
356.853	85
357.08	88
357.307	83
357.534	71
357.761	97
357.988	99
358.215	79
358.441	87
358.668	89
358.895	94
359.122	107
359.349	94
359.576	90
359.802	86
360.029	73
360.256	88
360.483	86
360.709	85
360.936	85
361.163	81
361.39	85
361.616	89
361.843	93
362.07	75
362.296	81
362.523	89
362.749	92
362.976	90
363.203	97
363.429	94
363.656	83
363.882	82
364.109	93
364.335	94
364.562	85
364.788	89
365.015	90
365.241	89
365.468	96
365.694	99
365.92	92
366.147	88
366.373	79
366.599	89
366.826	95
367.052	85
367.278	102
367.505	87
367.731	105
367.957	99
368.184	85
368.41	94
368.636	110
368.862	103
369.089	87
369.315	105
369.541	96
369.767	77
369.993	95
370.219	89
370.445	95
370.672	90
370.898	98
371.124	95
371.35	89
371.576	93
371.802	97
372.028	83
372.254	102
372.48	88
372.706	79
372.932	80
373.158	66
373.384	117
373.61	113
373.835	88
374.061	96
374.287	97
374.513	75
374.739	100
374.965	97
375.191	92
375.416	92
375.642	110
375.868	93
376.094	76
376.319	88
376.545	82
376.771	95
376.997	76
377.222	102
377.448	120
377.674	82
377.899	103
378.125	100
378.35	92
378.576	99
378.802	89
379.027	89
379.253	103
379.478	119
379.704	107
379.929	92
380.155	100
380.38	89
380.606	103
380.831	108
381.057	108
381.282	105
381.507	100
381.733	106
381.958	103
382.184	109
382.409	93
382.634	105
382.86	97
383.085	95
383.31	95
383.535	108
383.761	92
383.986	95
384.211	88
384.436	102
384.662	103
384.887	99
385.112	104
385.337	92
385.562	97
385.787	98
386.013	111
386.238	92
386.463	101
386.688	98
386.913	92
387.138	87
387.363	113
387.588	111
387.813	108
388.038	114
388.263	108
388.488	110
388.713	103
388.938	101
389.163	96
389.387	102
389.612	114
389.837	99
390.062	124
390.287	112
390.512	109
390.736	106
390.961	107
391.186	99
391.411	89
391.636	92
391.86	116
392.085	109
392.31	121
392.534	96
392.759	116
392.984	117
393.208	106
393.433	116
393.658	111
393.882	105
394.107	105
394.331	97
394.556	106
394.78	120
395.005	132
395.229	112
395.454	124
395.678	102
395.903	113
396.127	116
396.352	105
396.576	113
396.801	110
397.025	117
397.249	123
397.474	117
397.698	109
397.922	107
398.147	113
398.371	112
398.595	103
398.82	93
399.044	114
399.268	120
399.492	120
399.717	122
399.941	129
400.165	117
400.389	121
400.613	117
400.837	127
401.062	106
401.286	116
401.51	118
401.734	103
401.958	119
402.182	105
402.406	115
402.63	124
402.854	118
403.078	129
403.302	133
403.526	119
403.75	120
403.974	122
404.198	120
404.422	129
404.645	119
404.869	122
405.093	122
405.317	116
405.541	116
405.765	108
405.988	125
406.212	108
406.436	114
406.66	111
406.883	128
407.107	129
407.331	129
407.555	122
407.778	127
408.002	124
408.226	113
408.449	126
408.673	125
408.896	119
409.12	118
409.344	128
409.567	115
409.791	137
410.014	118
410.238	129
410.461	123
410.685	113
410.908	116
411.132	123
411.355	128
411.578	121
411.802	101
412.025	119
412.249	124
412.472	116
412.695	114
412.919	132
413.142	117
413.365	125
413.589	123
413.812	124
414.035	138
414.258	136
414.482	121
414.705	119
414.928	118
415.151	125
415.374	117
415.597	127
415.821	121
416.044	132
416.267	123
416.49	130
416.713	126
416.936	133
417.159	133
417.382	129
417.605	136
417.828	144
418.051	131
418.274	133
418.497	133
418.72	137
418.943	131
419.166	152
419.389	134
419.611	130
419.834	118
420.057	147
420.28	136
420.503	132
420.726	128
420.948	122
421.171	127
421.394	129
421.617	147
421.839	138
422.062	140
422.285	137
422.507	137
422.73	136
422.953	124
423.175	127
423.398	129
423.621	128
423.843	129
424.066	127
424.288	164
424.511	146
424.733	141
424.956	135
425.178	142
425.401	137
425.623	149
425.846	120
426.068	128
426.291	135
426.513	139
426.735	134
426.958	136
427.18	115
427.402	127
427.625	131
427.847	133
428.069	135
428.292	122
428.514	123
428.736	113
428.958	128
429.181	132
429.403	114
429.625	138
429.847	119
430.069	121
430.292	138
430.514	139
430.736	127
430.958	128
431.18	127
431.402	112
431.624	128
431.846	116
432.068	98
432.29	97
432.512	113
432.734	119
432.956	145
433.178	134
433.4	140
433.622	144
433.844	129
434.066	132
434.287	120
434.509	106
434.731	104
434.953	106
435.175	138
435.397	131
435.618	124
435.84	114
436.062	120
436.284	122
436.505	126
436.727	124
436.949	129
437.17	113
437.392	111
437.614	123
437.835	111
438.057	104
438.278	118
438.5	107
438.721	140
438.943	144
439.165	138
439.386	132
439.608	138
439.829	148
440.05	154
440.272	147
440.493	150
440.715	171
440.936	152
441.158	152
441.379	139
441.6	152
441.822	160
442.043	153
442.264	142
442.486	137
442.707	148
442.928	143
443.149	143
443.371	148
443.592	134
443.813	155
444.034	143
444.255	147
444.476	138
444.698	144
444.919	149
445.14	274
445.361	211
445.582	150
445.803	154
446.024	143
446.245	144
446.466	162
446.687	158
446.908	169
447.129	143
447.35	158
447.571	166
447.792	145
448.013	147
448.234	146
448.455	132
448.675	145
448.896	144
449.117	145
449.338	152
449.559	134
449.779	148
450	141
450.221	136
450.442	145
450.662	130
450.883	122
451.104	125
451.324	130
451.545	127
451.766	127
451.986	138
452.207	132
452.428	125
452.648	122
452.869	132
453.089	113
453.31	127
453.53	128
453.751	101
453.971	94
454.192	114
454.412	112
454.633	117
454.853	112
455.073	126
455.294	126
455.514	119
455.734	130
455.955	107
456.175	120
456.395	112
456.616	113
456.836	110
457.056	114
457.276	107
457.497	113
457.717	120
457.937	122
458.157	105
458.377	120
458.598	112
458.818	101
459.038	86
459.258	101
459.478	94
459.698	105
459.918	105
460.138	101
460.358	124
460.578	118
460.798	131
461.018	118
461.238	109
461.458	120
461.678	108
461.898	118
462.118	116
462.338	116
462.558	114
462.777	110
462.997	121
463.217	110
463.437	120
463.657	106
463.876	103
464.096	117
464.316	120
464.536	119
464.755	127
464.975	127
465.195	110
465.414	110
465.634	125
465.854	116
466.073	124
466.293	129
466.512	140
466.732	138
466.951	129
467.171	128
467.391	136
467.61	141
467.829	152
468.049	146
468.268	142
468.488	124
468.707	139
468.927	134
469.146	154
469.365	153
469.585	138
469.804	145
470.023	138
470.243	126
470.462	137
470.681	145
470.901	136
471.12	147
471.339	138
471.558	135
471.777	146
471.997	136
472.216	115
472.435	104
472.654	111
472.873	110
473.092	118
473.311	132
473.53	137
473.749	141
473.968	127
474.187	124
474.406	133
474.625	131
474.844	141
475.063	126
475.282	120
475.501	118
475.72	120
475.939	140
476.158	138
476.377	129
476.596	124
476.814	128
477.033	116
477.252	127
477.471	136
477.69	161
477.908	136
478.127	136
478.346	139
478.564	146
478.783	153
479.002	129
479.22	147
479.439	144
479.658	123
479.876	104
480.095	123
480.313	133
480.532	121
480.751	119
480.969	110
481.188	98
481.406	100
481.624	90
481.843	97
482.061	103
482.28	125
482.498	118
482.717	116
482.935	129
483.153	132
483.372	141
483.59	160
483.808	136
484.027	145
484.245	136
484.463	144
484.681	169
484.9	134
485.118	144
485.336	139
485.554	116
485.772	96
485.99	96
486.209	106
486.427	109
486.645	121
486.863	136
487.081	154
487.299	146
487.517	150
487.735	167
487.953	164
488.171	184
488.389	170
488.607	160
488.825	154
489.043	129
489.261	139
489.479	150
489.696	160
489.914	152
490.132	161
490.35	158
490.568	156
490.786	167
491.003	161
491.221	195
491.439	180
491.657	187
491.874	214
492.092	215
492.31	241
492.527	216
492.745	210
492.963	187
493.18	188
493.398	195
493.615	175
493.833	180
494.05	154
494.268	149
494.485	166
494.703	187
494.92	155
495.138	171
495.355	181
495.573	164
495.79	159
496.008	161
496.225	153
496.442	166
496.66	167
496.877	177
497.094	162
497.312	181
497.529	156
497.746	134
497.963	141
498.181	123
498.398	125
498.615	118
498.832	128
499.049	123
499.267	134
499.484	128
499.701	134
499.918	137
500.135	157
500.352	123
500.569	132
500.786	146
501.003	143
501.22	136
501.437	161
501.654	138
501.871	128
502.088	125
502.305	131
502.522	145
502.739	127
502.956	129
503.172	113
503.389	128
503.606	134
503.823	116
504.04	133
504.256	130
504.473	125
504.69	127
504.907	131
505.123	128
505.34	105
505.557	128
505.773	126
505.99	124
506.207	129
506.423	124
506.64	117
506.856	120
507.073	119
507.289	101
507.506	118
507.722	122
507.939	111
508.155	132
508.372	116
508.588	112
508.805	102
509.021	103
509.238	118
509.454	111
509.67	109
509.887	99
510.103	98
510.319	93
510.536	102
510.752	91
510.968	95
511.184	94
511.401	101
511.617	90
511.833	90
512.049	102
512.265	97
512.481	96
512.698	109
512.914	104
513.13	99
513.346	109
513.562	97
513.778	90
513.994	102
514.21	91
514.426	88
514.642	95
514.858	92
515.074	92
515.29	90
515.506	89
515.721	106
515.937	97
516.153	79
516.369	89
516.585	85
516.801	93
517.016	89
517.232	82
517.448	104
517.664	93
517.879	87
518.095	83
518.311	86
518.527	103
518.742	103
518.958	104
519.173	104
519.389	109
519.605	84
519.82	103
520.036	94
520.251	119
520.467	109
520.682	97
520.898	110
521.113	90
521.329	84
521.544	90
521.76	93
521.975	89
522.19	106
522.406	85
522.621	102
522.836	104
523.052	94
523.267	107
523.482	108
523.698	108
523.913	123
524.128	120
524.343	120
524.559	109
524.774	126
524.989	116
525.204	117
525.419	120
525.634	118
525.849	106
526.064	113
526.28	105
526.495	93
526.71	96
526.925	93
527.14	90
527.355	80
527.57	86
527.785	98
527.999	106
528.214	108
528.429	124
528.644	125
528.859	118
529.074	141
529.289	160
529.503	153
529.718	146
529.933	137
530.148	103
530.363	111
530.577	102
530.792	95
531.007	91
531.221	97
531.436	89
531.651	75
531.865	85
532.08	104
532.295	81
532.509	66
532.724	92
532.938	87
533.153	104
533.367	97
533.582	122
533.796	117
534.011	110
534.225	102
534.44	96
534.654	104
534.868	114
535.083	122
535.297	84
535.511	109
535.726	106
535.94	93
536.154	101
536.369	106
536.583	85
536.797	86
537.011	102
537.225	89
537.44	92
537.654	96
537.868	105
538.082	92
538.296	97
538.51	104
538.724	117
538.938	121
539.153	119
539.367	129
539.581	138
539.795	106
540.009	85
540.222	102
540.436	104
540.65	104
540.864	121
541.078	122
541.292	158
541.506	148
541.72	164
541.934	196
542.147	208
542.361	172
542.575	169
542.789	157
543.002	132
543.216	134
543.43	136
543.644	140
543.857	145
544.071	162
544.285	169
544.498	160
544.712	163
544.925	161
545.139	158
545.352	147
545.566	151
545.779	171
545.993	162
546.206	188
546.42	180
546.633	150
546.847	168
547.06	173
547.274	154
547.487	163
547.7	167
547.914	172
548.127	163
548.34	158
548.554	158
548.767	153
548.98	172
549.193	158
549.407	149
549.62	149
549.833	144
550.046	152
550.259	168
550.473	158
550.686	140
550.899	146
551.112	146
551.325	136
551.538	140
551.751	138
551.964	138
552.177	138
552.39	147
552.603	154
552.816	145
553.029	145
553.242	150
553.455	153
553.667	171
553.88	153
554.093	150
554.306	157
554.519	155
554.732	151
554.944	154
555.157	144
555.37	138
555.583	129
555.795	138
556.008	152
556.221	147
556.433	145
556.646	123
556.859	137
557.071	144
557.284	162
557.496	137
557.709	160
557.921	159
558.134	129
558.346	153
558.559	142
558.771	135
558.984	134
559.196	140
559.409	139
559.621	140
559.833	137
560.046	126
560.258	132
560.47	124
560.683	127
560.895	124
561.107	152
561.32	153
561.532	137
561.744	125
561.956	122
562.168	130
562.381	128
562.593	123
562.805	118
563.017	121
563.229	121
563.441	120
563.653	125
563.865	130
564.077	130
564.289	121
564.501	117
564.713	130
564.925	119
565.137	123
565.349	124
565.561	103
565.773	128
565.985	124
566.197	120
566.408	113
566.62	120
566.832	114
567.044	123
567.255	120
567.467	103
567.679	123
567.891	112
568.102	98
568.314	90
568.526	101
568.737	94
568.949	81
569.161	74
569.372	92
569.584	85
569.795	85
570.007	92
570.218	82
570.43	96
570.641	102
570.853	92
571.064	99
571.276	108
571.487	108
571.698	104
571.91	100
572.121	94
572.333	100
572.544	108
572.755	102
572.966	106
573.178	92
573.389	95
573.6	86
573.811	81
574.023	79
574.234	86
574.445	93
574.656	78
574.867	86
575.078	108
575.289	100
575.501	106
575.712	106
575.923	94
576.134	92
576.345	99
576.556	106
576.767	107
576.978	100
577.188	103
577.399	89
577.61	100
577.821	99
578.032	92
578.243	84
578.454	104
578.665	88
578.875	74
579.086	89
579.297	77
579.508	81
579.718	87
579.929	89
580.14	85
580.35	84
580.561	88
580.772	98
580.982	109
581.193	90
581.403	91
581.614	89
581.825	83
582.035	99
582.246	108
582.456	87
582.667	87
582.877	85
583.087	98
583.298	109
583.508	82
583.719	101
583.929	81
584.139	96
584.35	78
584.56	102
584.77	86
584.981	95
585.191	101
585.401	74
585.611	92
585.821	81
586.032	91
586.242	77
586.452	91
586.662	83
586.872	88
587.082	91
587.292	82
587.502	77
587.713	88
587.923	90
588.133	89
588.343	91
588.553	78
588.762	92
588.972	93
589.182	74
589.392	82
589.602	97
589.812	90
590.022	99
590.232	85
590.441	89
590.651	82
590.861	76
591.071	100
591.281	94
591.49	94
591.7	92
591.91	96
592.119	90
592.329	74
592.539	95
592.748	86
592.958	103
593.167	79
593.377	87
593.587	104
593.796	82
594.006	97
594.215	99
594.424	90
594.634	93
594.843	102
595.053	105
595.262	86
595.472	91
595.681	93
595.89	83
596.1	88
596.309	88
596.518	89
596.727	94
596.937	81
597.146	96
597.355	95
597.564	102
597.774	100
597.983	102
598.192	82
598.401	102
598.61	106
598.819	95
599.028	103
599.237	98
599.446	92
599.655	102
599.864	98
600.073	104
600.282	94
600.491	114
600.7	96
600.909	101
601.118	100
601.327	102
601.536	105
601.745	91
601.953	103
602.162	105
602.371	106
602.58	110
602.789	106
602.997	118
603.206	114
603.415	120
603.623	98
603.832	116
604.041	113
604.249	116
604.458	106
604.666	111
604.875	118
605.084	120
605.292	96
605.501	112
605.709	118
605.918	122
606.126	103
606.334	103
606.543	114
606.751	118
606.96	124
607.168	108
607.376	104
607.585	101
607.793	107
608.001	111
608.21	120
608.418	125
608.626	116
608.834	129
609.043	109
609.251	106
609.459	108
609.667	106
609.875	116
610.083	98
610.291	116
610.499	125
610.707	121
610.916	111
611.124	109
611.332	101
611.54	104
611.748	111
611.955	104
612.163	102
612.371	124
612.579	102
612.787	113
612.995	127
613.203	124
613.411	124
613.618	119
613.826	116
614.034	119
614.242	110
614.449	124
614.657	105
614.865	113
615.072	109
615.28	121
615.488	130
615.695	111
615.903	109
616.111	113
616.318	121
616.526	106
616.733	118
616.941	117
617.148	128
617.356	109
617.563	118
617.771	110
617.978	118
618.185	109
618.393	109
618.6	104
618.807	111
619.015	109
619.222	110
619.429	121
619.637	92
619.844	98
620.051	114
620.258	109
620.466	114
620.673	110
620.88	104
621.087	116
621.294	105
621.501	94
621.708	113
621.915	97
622.122	103
622.329	101
622.536	104
622.743	110
622.95	111
623.157	104
623.364	112
623.571	121
623.778	95
623.985	111
624.192	109
624.399	90
624.606	97
624.812	113
625.019	108
625.226	109
625.433	108
625.639	103
625.846	107
626.053	96
626.259	88
626.466	102
626.673	104
626.879	92
627.086	96
627.293	105
627.499	111
627.706	106
627.912	108
628.119	101
628.325	112
628.532	125
628.738	106
628.945	104
629.151	103
629.357	106
629.564	92
629.77	87
629.976	118
630.183	104
630.389	107
630.595	118
630.802	118
631.008	109
631.214	102
631.42	113
631.627	120
631.833	102
632.039	108
632.245	101
632.451	100
632.657	92
632.863	116
633.069	97
633.275	86
633.481	103
633.688	113
633.893	109
634.099	105
634.305	97
634.511	105
634.717	108
634.923	119
635.129	110
635.335	120
635.541	105
635.747	101
635.952	102
636.158	98
636.364	104
636.57	103
636.775	101
636.981	108
637.187	103
637.392	102
637.598	102
637.804	114
638.009	103
638.215	98
638.421	109
638.626	92
638.832	107
639.037	84
639.243	98
639.448	109
639.654	100
639.859	110
640.065	100
640.27	86
640.475	112
640.681	99
640.886	93
641.091	107
641.297	101
641.502	97
641.707	104
641.913	88
642.118	90
642.323	89
642.528	108
642.733	109
642.939	114
643.144	119
643.349	95
643.554	98
643.759	118
643.964	102
644.169	100
644.374	108
644.579	91
644.784	95
644.989	94
645.194	102
645.399	96
645.604	115
645.809	95
646.014	108
646.219	95
646.423	98
646.628	105
646.833	104
647.038	99
647.243	86
647.447	96
647.652	90
647.857	105
648.062	104
648.266	104
648.471	96
648.676	94
648.88	105
649.085	105
649.289	88
649.494	100
649.698	101
649.903	100
650.107	110
650.312	113
650.516	97
650.721	100
650.925	100
651.13	95
651.334	103
651.539	91
651.743	92
651.947	94
652.152	97
652.356	114
652.56	99
652.764	79
652.969	98
653.173	94
653.377	81
653.581	95
653.785	80
653.99	100
654.194	106
654.398	87
654.602	78
654.806	92
655.01	101
655.214	93
655.418	95
655.622	106
655.826	96
656.03	100
656.234	91
656.438	82
656.642	81
656.846	92
657.049	83
657.253	98
657.457	95
657.661	90
657.865	94
658.068	85
658.272	68
658.476	97
658.68	100
658.883	102
659.087	80
659.291	80
659.494	92
659.698	86
659.901	89
660.105	89
660.309	82
660.512	96
660.716	86
660.919	58
661.123	89
661.326	92
661.53	88
661.733	88
661.936	78
662.14	72
662.343	84
662.546	93
662.75	103
662.953	78
663.156	81
663.36	85
663.563	89
663.766	89
663.969	88
664.173	74
664.376	90
664.579	91
664.782	86
664.985	86
665.188	82
665.391	94
665.594	92
665.797	90
666	59
666.203	80
666.406	70
666.609	79
666.812	82
667.015	79
667.218	73
667.421	91
667.624	89
667.827	80
668.03	84
668.232	85
668.435	79
668.638	86
668.841	100
669.043	63
669.246	75
669.449	85
669.651	91
669.854	89
670.057	93
670.259	86
670.462	88
670.665	91
670.867	87
671.07	90
671.272	89
671.475	85
671.677	96
671.88	83
672.082	97
672.284	93
672.487	71
672.689	75
672.892	87
