Data from 1970.PennyLincolnUp.Lamp.En5.5.200Scan.071719.P1._HRD10591_15-14-09-845.txt Node
Date: Thu Jul 18 15:14:09 EDT 2019
User: cochatt
Spectrometer: HR+D1059
Trigger mode: 1
Integration Time (sec): 1.000000E-1
Scans to average: 1
Electric dark correction enabled: true
Nonlinearity correction enabled: false
Boxcar width: 0
XAxis mode: Wavelengths
Number of Pixels in Spectrum: 2048
>>>>>Begin Spectral Data<<<<<
223.165	-15.69
223.4	-15.69
223.635	-15.69
223.869	-28.69
224.104	-9.69
224.338	-9.69
224.573	-39.69
224.808	-16.69
225.042	-9.69
225.277	-8.69
225.511	-0.69
225.746	5.31
225.98	7.31
226.215	22.31
226.449	24.31
226.683	21.31
226.918	24.31
227.152	34.31
227.387	30.31
227.621	43.31
227.856	46.31
228.09	47.31
228.324	72.31
228.559	55.31
228.793	68.31
229.027	99.31
229.262	125.31
229.496	121.31
229.73	148.31
229.964	173.31
230.199	136.31
230.433	121.31
230.667	116.31
230.901	117.31
231.136	116.31
231.37	121.31
231.604	104.31
231.838	124.31
232.072	104.31
232.306	123.31
232.541	132.31
232.775	117.31
233.009	121.31
233.243	128.31
233.477	106.31
233.711	103.31
233.945	101.31
234.179	127.31
234.413	126.31
234.647	112.31
234.881	111.31
235.115	110.31
235.349	128.31
235.583	119.31
235.817	122.31
236.051	126.31
236.285	127.31
236.519	103.31
236.753	147.31
236.987	168.31
237.221	194.31
237.455	260.31
237.689	203.31
237.922	142.31
238.156	130.31
238.39	150.31
238.624	142.31
238.858	118.31
239.091	126.31
239.325	135.31
239.559	132.31
239.793	152.31
240.027	148.31
240.26	144.31
240.494	167.31
240.728	165.31
240.961	166.31
241.195	162.31
241.429	141.31
241.662	142.31
241.896	138.31
242.13	134.31
242.363	147.31
242.597	140.31
242.83	154.31
243.064	144.31
243.298	142.31
243.531	140.31
243.765	133.31
243.998	143.31
244.232	156.31
244.465	154.31
244.699	159.31
244.932	145.31
245.166	150.31
245.399	155.31
245.633	164.31
245.866	153.31
246.099	156.31
246.333	151.31
246.566	148.31
246.8	158.31
247.033	178.31
247.266	166.31
247.5	182.31
247.733	179.31
247.966	178.31
248.2	201.31
248.433	182.31
248.666	205.31
248.899	203.31
249.133	218.31
249.366	226.31
249.599	213.31
249.832	198.31
250.066	203.31
250.299	199.31
250.532	196.31
250.765	237.31
250.998	267.31
251.231	262.31
251.465	242.31
251.698	220.31
251.931	226.31
252.164	208.31
252.397	197.31
252.63	202.31
252.863	231.31
253.096	237.31
253.329	238.31
253.562	235.31
253.795	240.31
254.028	258.31
254.261	243.31
254.494	233.31
254.727	272.31
254.96	308.31
255.193	299.31
255.426	270.31
255.659	242.31
255.892	267.31
256.124	258.31
256.357	268.31
256.59	244.31
256.823	253.31
257.056	231.31
257.289	239.31
257.521	229.31
257.754	218.31
257.987	224.31
258.22	219.31
258.452	222.31
258.685	213.31
258.918	216.31
259.151	221.31
259.383	230.31
259.616	238.31
259.849	245.31
260.081	243.31
260.314	275.31
260.547	276.31
260.779	251.31
261.012	267.31
261.244	247.31
261.477	232.31
261.71	226.31
261.942	241.31
262.175	262.31
262.407	250.31
262.64	242.31
262.872	219.31
263.105	235.31
263.337	213.31
263.57	215.31
263.802	224.31
264.035	207.31
264.267	223.31
264.499	215.31
264.732	206.31
264.964	212.31
265.197	218.31
265.429	210.31
265.661	221.31
265.894	222.31
266.126	229.31
266.358	230.31
266.591	213.31
266.823	223.31
267.055	239.31
267.287	226.31
267.52	231.31
267.752	255.31
267.984	230.31
268.216	238.31
268.448	250.31
268.681	218.31
268.913	254.31
269.145	270.31
269.377	284.31
269.609	287.31
269.841	276.31
270.073	271.31
270.306	295.31
270.538	342.31
270.77	335.31
271.002	329.31
271.234	295.31
271.466	310.31
271.698	334.31
271.93	343.31
272.162	329.31
272.394	330.31
272.626	339.31
272.858	299.31
273.09	291.31
273.322	289.31
273.553	268.31
273.785	258.31
274.017	256.31
274.249	263.31
274.481	264.31
274.713	261.31
274.945	278.31
275.176	275.31
275.408	248.31
275.64	243.31
275.872	269.31
276.104	261.31
276.335	267.31
276.567	271.31
276.799	315.31
277.031	323.31
277.262	315.31
277.494	312.31
277.726	304.31
277.957	303.31
278.189	301.31
278.421	278.31
278.652	283.31
278.884	264.31
279.115	264.31
279.347	282.31
279.579	273.31
279.81	267.31
280.042	257.31
280.273	265.31
280.505	260.31
280.736	257.31
280.968	255.31
281.199	252.31
281.431	265.31
281.662	264.31
281.894	273.31
282.125	274.31
282.356	285.31
282.588	292.31
282.819	313.31
283.051	266.31
283.282	255.31
283.513	252.31
283.745	278.31
283.976	282.31
284.207	277.31
284.439	254.31
284.67	290.31
284.901	264.31
285.132	276.31
285.364	265.31
285.595	274.31
285.826	270.31
286.057	288.31
286.288	261.31
286.52	261.31
286.751	261.31
286.982	278.31
287.213	261.31
287.444	249.31
287.675	287.31
287.906	287.31
288.138	298.31
288.369	308.31
288.6	291.31
288.831	294.31
289.062	306.31
289.293	284.31
289.524	290.31
289.755	271.31
289.986	285.31
290.217	283.31
290.448	283.31
290.679	286.31
290.91	287.31
291.141	262.31
291.371	270.31
291.602	267.31
291.833	276.31
292.064	288.31
292.295	275.31
292.526	286.31
292.757	268.31
292.987	285.31
293.218	268.31
293.449	298.31
293.68	280.31
293.91	300.31
294.141	281.31
294.372	284.31
294.603	271.31
294.833	269.31
295.064	266.31
295.295	261.31
295.525	284.31
295.756	288.31
295.987	307.31
296.217	311.31
296.448	324.31
296.679	303.31
296.909	278.31
297.14	290.31
297.37	277.31
297.601	280.31
297.831	277.31
298.062	276.31
298.292	292.31
298.523	299.31
298.753	278.31
298.984	296.31
299.214	315.31
299.445	294.31
299.675	287.31
299.905	317.31
300.136	312.31
300.366	303.31
300.597	289.31
300.827	291.31
301.057	300.31
301.288	310.31
301.518	326.31
301.748	316.31
301.979	316.31
302.209	326.31
302.439	296.31
302.669	315.31
302.9	306.31
303.13	308.31
303.36	320.31
303.59	311.31
303.82	323.31
304.051	306.31
304.281	332.31
304.511	311.31
304.741	317.31
304.971	314.31
305.201	311.31
305.431	322.31
305.661	309.31
305.891	312.31
306.121	328.31
306.352	327.31
306.582	336.31
306.812	320.31
307.042	316.31
307.272	319.31
307.502	302.31
307.731	327.31
307.961	332.31
308.191	313.31
308.421	322.31
308.651	328.31
308.881	339.31
309.111	324.31
309.341	340.31
309.571	352.31
309.8	346.31
310.03	359.31
310.26	358.31
310.49	390.31
310.72	402.31
310.949	411.31
311.179	403.31
311.409	376.31
311.639	378.31
311.868	378.31
312.098	387.31
312.328	373.31
312.557	406.31
312.787	416.31
313.017	422.31
313.246	390.31
313.476	376.31
313.706	360.31
313.935	364.31
314.165	390.31
314.394	374.31
314.624	406.31
314.853	389.31
315.083	371.31
315.312	372.31
315.542	357.31
315.771	354.31
316.001	361.31
316.23	367.31
316.46	382.31
316.689	382.31
316.919	371.31
317.148	375.31
317.377	392.31
317.607	365.31
317.836	372.31
318.065	388.31
318.295	375.31
318.524	358.31
318.753	379.31
318.983	379.31
319.212	378.31
319.441	379.31
319.67	393.31
319.9	382.31
320.129	391.31
320.358	377.31
320.587	382.31
320.816	394.31
321.046	402.31
321.275	401.31
321.504	407.31
321.733	395.31
321.962	398.31
322.191	437.31
322.42	460.31
322.649	450.31
322.878	446.31
323.108	481.31
323.337	515.31
323.566	511.31
323.795	568.31
324.024	622.31
324.253	743.31
324.482	1076.31
324.71	1612.31
324.939	2268.31
325.168	1974.31
325.397	1044.31
325.626	709.31
325.855	578.31
326.084	563.31
326.313	529.31
326.542	536.31
326.77	575.31
326.999	709.31
327.228	946.31
327.457	1452.31
327.686	1733.31
327.914	1195.31
328.143	804.31
328.372	704.31
328.6	650.31
328.829	628.31
329.058	635.31
329.287	655.31
329.515	577.31
329.744	538.31
329.972	533.31
330.201	550.31
330.43	602.31
330.658	620.31
330.887	652.31
331.115	627.31
331.344	549.31
331.572	516.31
331.801	502.31
332.03	519.31
332.258	480.31
332.486	445.31
332.715	446.31
332.943	426.31
333.172	439.31
333.4	447.31
333.629	453.31
333.857	484.31
334.085	486.31
334.314	495.31
334.542	560.31
334.771	554.31
334.999	527.31
335.227	472.31
335.455	469.31
335.684	454.31
335.912	436.31
336.14	422.31
336.369	424.31
336.597	431.31
336.825	430.31
337.053	461.31
337.281	419.31
337.51	432.31
337.738	446.31
337.966	459.31
338.194	437.31
338.422	431.31
338.65	436.31
338.878	432.31
339.106	421.31
339.334	408.31
339.562	425.31
339.79	445.31
340.018	433.31
340.246	417.31
340.474	417.31
340.702	411.31
340.93	406.31
341.158	410.31
341.386	399.31
341.614	435.31
341.842	444.31
342.07	431.31
342.298	426.31
342.526	420.31
342.754	406.31
342.981	389.31
343.209	408.31
343.437	413.31
343.665	409.31
343.893	400.31
344.12	422.31
344.348	428.31
344.576	437.31
344.804	456.31
345.031	464.31
345.259	447.31
345.487	446.31
345.714	443.31
345.942	410.31
346.17	440.31
346.397	406.31
346.625	435.31
346.853	406.31
347.08	416.31
347.308	408.31
347.535	434.31
347.763	434.31
347.99	443.31
348.218	429.31
348.445	456.31
348.673	459.31
348.9	438.31
349.128	418.31
349.355	399.31
349.583	404.31
349.81	396.31
350.037	400.31
350.265	416.31
350.492	409.31
350.72	393.31
350.947	400.31
351.174	430.31
351.402	445.31
351.629	417.31
351.856	427.31
352.083	419.31
352.311	445.31
352.538	446.31
352.765	432.31
352.992	433.31
353.22	453.31
353.447	436.31
353.674	423.31
353.901	416.31
354.128	410.31
354.355	396.31
354.583	406.31
354.81	396.31
355.037	400.31
355.264	387.31
355.491	376.31
355.718	378.31
355.945	395.31
356.172	381.31
356.399	390.31
356.626	389.31
356.853	382.31
357.08	383.31
357.307	395.31
357.534	392.31
357.761	383.31
357.988	378.31
358.215	393.31
358.441	393.31
358.668	405.31
358.895	405.31
359.122	399.31
359.349	398.31
359.576	441.31
359.802	465.31
360.029	479.31
360.256	517.31
360.483	493.31
360.709	446.31
360.936	426.31
361.163	420.31
361.39	412.31
361.616	441.31
361.843	418.31
362.07	447.31
362.296	427.31
362.523	438.31
362.749	419.31
362.976	438.31
363.203	430.31
363.429	400.31
363.656	398.31
363.882	413.31
364.109	407.31
364.335	407.31
364.562	408.31
364.788	405.31
365.015	412.31
365.241	420.31
365.468	427.31
365.694	431.31
365.92	454.31
366.147	405.31
366.373	402.31
366.599	405.31
366.826	413.31
367.052	400.31
367.278	398.31
367.505	392.31
367.731	412.31
367.957	400.31
368.184	397.31
368.41	427.31
368.636	427.31
368.862	423.31
369.089	426.31
369.315	398.31
369.541	399.31
369.767	436.31
369.993	410.31
370.219	418.31
370.445	414.31
370.672	390.31
370.898	406.31
371.124	397.31
371.35	406.31
371.576	408.31
371.802	399.31
372.028	412.31
372.254	401.31
372.48	399.31
372.706	399.31
372.932	405.31
373.158	396.31
373.384	422.31
373.61	412.31
373.835	411.31
374.061	411.31
374.287	411.31
374.513	418.31
374.739	410.31
374.965	413.31
375.191	411.31
375.416	415.31
375.642	401.31
375.868	426.31
376.094	419.31
376.319	422.31
376.545	403.31
376.771	403.31
376.997	405.31
377.222	400.31
377.448	408.31
377.674	400.31
377.899	391.31
378.125	397.31
378.35	422.31
378.576	405.31
378.802	424.31
379.027	406.31
379.253	418.31
379.478	412.31
379.704	377.31
379.929	404.31
380.155	411.31
380.38	414.31
380.606	404.31
380.831	420.31
381.057	423.31
381.282	412.31
381.507	407.31
381.733	417.31
381.958	430.31
382.184	404.31
382.409	425.31
382.634	421.31
382.86	444.31
383.085	438.31
383.31	418.31
383.535	424.31
383.761	401.31
383.986	436.31
384.211	431.31
384.436	399.31
384.662	417.31
384.887	436.31
385.112	424.31
385.337	430.31
385.562	427.31
385.787	434.31
386.013	452.31
386.238	470.31
386.463	440.31
386.688	472.31
386.913	427.31
387.138	425.31
387.363	444.31
387.588	425.31
387.813	454.31
388.038	447.31
388.263	430.31
388.488	447.31
388.713	427.31
388.938	429.31
389.163	460.31
389.387	440.31
389.612	423.31
389.837	450.31
390.062	448.31
390.287	442.31
390.512	454.31
390.736	428.31
390.961	436.31
391.186	429.31
391.411	446.31
391.636	434.31
391.86	431.31
392.085	443.31
392.31	436.31
392.534	448.31
392.759	444.31
392.984	454.31
393.208	443.31
393.433	466.31
393.658	474.31
393.882	460.31
394.107	457.31
394.331	455.31
394.556	437.31
394.78	430.31
395.005	481.31
395.229	445.31
395.454	453.31
395.678	457.31
395.903	473.31
396.127	496.31
396.352	492.31
396.576	459.31
396.801	469.31
397.025	473.31
397.249	476.31
397.474	476.31
397.698	464.31
397.922	474.31
398.147	485.31
398.371	505.31
398.595	476.31
398.82	495.31
399.044	484.31
399.268	507.31
399.492	527.31
399.717	537.31
399.941	574.31
400.165	597.31
400.389	623.31
400.613	574.31
400.837	528.31
401.062	528.31
401.286	513.31
401.51	484.31
401.734	499.31
401.958	509.31
402.182	532.31
402.406	524.31
402.63	527.31
402.854	504.31
403.078	520.31
403.302	515.31
403.526	496.31
403.75	541.31
403.974	534.31
404.198	549.31
404.422	537.31
404.645	547.31
404.869	536.31
405.093	572.31
405.317	607.31
405.541	639.31
405.765	586.31
405.988	554.31
406.212	537.31
406.436	591.31
406.66	633.31
406.883	566.31
407.107	615.31
407.331	656.31
407.555	690.31
407.778	696.31
408.002	642.31
408.226	612.31
408.449	597.31
408.673	587.31
408.896	621.31
409.12	639.31
409.344	607.31
409.567	551.31
409.791	568.31
410.014	526.31
410.238	524.31
410.461	540.31
410.685	532.31
410.908	559.31
411.132	608.31
411.355	637.31
411.578	581.31
411.802	575.31
412.025	551.31
412.249	569.31
412.472	566.31
412.695	595.31
412.919	588.31
413.142	548.31
413.365	518.31
413.589	533.31
413.812	517.31
414.035	490.31
414.258	516.31
414.482	512.31
414.705	493.31
414.928	498.31
415.151	500.31
415.374	492.31
415.597	512.31
415.821	499.31
416.044	535.31
416.267	511.31
416.49	496.31
416.713	495.31
416.936	495.31
417.159	501.31
417.382	501.31
417.605	532.31
417.828	528.31
418.051	532.31
418.274	521.31
418.497	502.31
418.72	514.31
418.943	487.31
419.166	523.31
419.389	525.31
419.611	537.31
419.834	538.31
420.057	565.31
420.28	540.31
420.503	531.31
420.726	542.31
420.948	558.31
421.171	595.31
421.394	637.31
421.617	570.31
421.839	555.31
422.062	552.31
422.285	555.31
422.507	635.31
422.73	703.31
422.953	666.31
423.175	597.31
423.398	574.31
423.621	575.31
423.843	597.31
424.066	589.31
424.288	598.31
424.511	607.31
424.733	673.31
424.956	749.31
425.178	723.31
425.401	716.31
425.623	744.31
425.846	635.31
426.068	613.31
426.291	587.31
426.513	610.31
426.735	608.31
426.958	673.31
427.18	727.31
427.402	842.31
427.625	954.31
427.847	837.31
428.069	759.31
428.292	666.31
428.514	601.31
428.736	575.31
428.958	554.31
429.181	558.31
429.403	563.31
429.625	568.31
429.847	605.31
430.069	657.31
430.292	662.31
430.514	549.31
430.736	542.31
430.958	534.31
431.18	519.31
431.402	514.31
431.624	527.31
431.846	519.31
432.068	533.31
432.29	512.31
432.512	493.31
432.734	530.31
432.956	508.31
433.178	556.31
433.4	528.31
433.622	539.31
433.844	518.31
434.066	516.31
434.287	510.31
434.509	519.31
434.731	552.31
434.953	554.31
435.175	557.31
435.397	606.31
435.618	595.31
435.84	619.31
436.062	739.31
436.284	806.31
436.505	703.31
436.727	623.31
436.949	600.31
437.17	558.31
437.392	544.31
437.614	576.31
437.835	614.31
438.057	723.31
438.278	847.31
438.5	830.31
438.721	854.31
438.943	819.31
439.165	702.31
439.386	631.31
439.608	627.31
439.829	631.31
440.05	639.31
440.272	688.31
440.493	666.31
440.715	600.31
440.936	607.31
441.158	575.31
441.379	571.31
441.6	583.31
441.822	599.31
442.043	610.31
442.264	746.31
442.486	783.31
442.707	668.31
442.928	596.31
443.149	615.31
443.371	643.31
443.592	674.31
443.813	793.31
444.034	856.31
444.255	728.31
444.476	638.31
444.698	606.31
444.919	603.31
445.14	710.31
445.361	657.31
445.582	640.31
445.803	687.31
446.024	803.31
446.245	825.31
446.466	746.31
446.687	655.31
446.908	624.31
447.129	588.31
447.35	579.31
447.571	558.31
447.792	551.31
448.013	573.31
448.234	605.31
448.455	648.31
448.675	765.31
448.896	839.31
449.117	755.31
449.338	720.31
449.559	782.31
449.779	862.31
450	736.31
450.221	639.31
450.442	586.31
450.662	575.31
450.883	587.31
451.104	577.31
451.324	568.31
451.545	540.31
451.766	529.31
451.986	505.31
452.207	493.31
452.428	487.31
452.648	487.31
452.869	504.31
453.089	516.31
453.31	524.31
453.53	501.31
453.751	510.31
453.971	510.31
454.192	523.31
454.412	512.31
454.633	503.31
454.853	495.31
455.073	510.31
455.294	534.31
455.514	591.31
455.734	575.31
455.955	497.31
456.175	482.31
456.395	452.31
456.616	456.31
456.836	469.31
457.056	457.31
457.276	464.31
457.497	452.31
457.717	474.31
457.937	459.31
458.157	466.31
458.377	483.31
458.598	491.31
458.818	574.31
459.038	662.31
459.258	696.31
459.478	572.31
459.698	521.31
459.918	500.31
460.138	523.31
460.358	480.31
460.578	492.31
460.798	499.31
461.018	501.31
461.238	512.31
461.458	529.31
461.678	491.31
461.898	514.31
462.118	510.31
462.338	535.31
462.558	532.31
462.777	529.31
462.997	542.31
463.217	553.31
463.437	531.31
463.657	540.31
463.876	543.31
464.096	526.31
464.316	548.31
464.536	560.31
464.755	534.31
464.975	578.31
465.195	603.31
465.414	705.31
465.634	626.31
465.854	590.31
466.073	542.31
466.293	541.31
466.512	503.31
466.732	493.31
466.951	518.31
467.171	518.31
467.391	511.31
467.61	537.31
467.829	527.31
468.049	534.31
468.268	526.31
468.488	505.31
468.707	489.31
468.927	514.31
469.146	487.31
469.365	492.31
469.585	482.31
469.804	502.31
470.023	526.31
470.243	504.31
470.462	503.31
470.681	531.31
470.901	535.31
471.12	531.31
471.339	500.31
471.558	528.31
471.777	491.31
471.997	504.31
472.216	510.31
472.435	574.31
472.654	560.31
472.873	516.31
473.092	514.31
473.311	504.31
473.53	520.31
473.749	539.31
473.968	579.31
474.187	676.31
474.406	702.31
474.625	585.31
474.844	551.31
475.063	523.31
475.282	528.31
475.501	514.31
475.72	528.31
475.939	534.31
476.158	535.31
476.377	531.31
476.596	543.31
476.814	531.31
477.033	556.31
477.252	568.31
477.471	555.31
477.69	566.31
477.908	557.31
478.127	575.31
478.346	566.31
478.564	568.31
478.783	566.31
479.002	586.31
479.22	612.31
479.439	603.31
479.658	640.31
479.876	628.31
480.095	623.31
480.313	664.31
480.532	659.31
480.751	631.31
480.969	663.31
481.188	715.31
481.406	750.31
481.624	693.31
481.843	654.31
482.061	617.31
482.28	635.31
482.498	635.31
482.717	633.31
482.935	612.31
483.153	638.31
483.372	620.31
483.59	642.31
483.808	616.31
484.027	634.31
484.245	610.31
484.463	631.31
484.681	654.31
484.9	604.31
485.118	623.31
485.336	622.31
485.554	647.31
485.772	634.31
485.99	621.31
486.209	636.31
486.427	624.31
486.645	679.31
486.863	676.31
487.081	677.31
487.299	678.31
487.517	673.31
487.735	680.31
487.953	671.31
488.171	670.31
488.389	656.31
488.607	654.31
488.825	705.31
489.043	664.31
489.261	666.31
489.479	708.31
489.696	666.31
489.914	692.31
490.132	728.31
490.35	723.31
490.568	731.31
490.786	725.31
491.003	735.31
491.221	747.31
491.439	748.31
491.657	800.31
491.874	779.31
492.092	802.31
492.31	788.31
492.527	774.31
492.745	803.31
492.963	786.31
493.18	799.31
493.398	815.31
493.615	821.31
493.833	829.31
494.05	799.31
494.268	811.31
494.485	839.31
494.703	799.31
494.92	800.31
495.138	815.31
495.355	845.31
495.573	828.31
495.79	828.31
496.008	802.31
496.225	806.31
496.442	792.31
496.66	823.31
496.877	825.31
497.094	822.31
497.312	822.31
497.529	828.31
497.746	830.31
497.963	808.31
498.181	851.31
498.398	860.31
498.615	872.31
498.832	872.31
499.049	873.31
499.267	890.31
499.484	893.31
499.701	932.31
499.918	944.31
500.135	975.31
500.352	987.31
500.569	1014.31
500.786	970.31
501.003	1010.31
501.22	968.31
501.437	982.31
501.654	978.31
501.871	982.31
502.088	957.31
502.305	896.31
502.522	900.31
502.739	857.31
502.956	851.31
503.172	821.31
503.389	822.31
503.606	858.31
503.823	855.31
504.04	828.31
504.256	803.31
504.473	774.31
504.69	794.31
504.907	779.31
505.123	774.31
505.34	800.31
505.557	757.31
505.773	796.31
505.99	768.31
506.207	778.31
506.423	799.31
506.64	783.31
506.856	794.31
507.073	772.31
507.289	758.31
507.506	756.31
507.722	805.31
507.939	794.31
508.155	788.31
508.372	778.31
508.588	740.31
508.805	758.31
509.021	735.31
509.238	747.31
509.454	770.31
509.67	761.31
509.887	766.31
510.103	756.31
510.319	783.31
510.536	881.31
510.752	1446.31
510.968	1192.31
511.184	783.31
511.401	746.31
511.617	731.31
511.833	713.31
512.049	695.31
512.265	710.31
512.481	715.31
512.698	706.31
512.914	696.31
513.13	721.31
513.346	715.31
513.562	704.31
513.778	727.31
513.994	718.31
514.21	745.31
514.426	793.31
514.642	818.31
514.858	877.31
515.074	882.31
515.29	1099.31
515.506	1640.31
515.721	1355.31
515.937	886.31
516.153	782.31
516.369	726.31
516.585	751.31
516.801	721.31
517.016	702.31
517.232	700.31
517.448	708.31
517.664	708.31
517.879	709.31
518.095	698.31
518.311	703.31
518.527	709.31
518.742	724.31
518.958	684.31
519.173	667.31
519.389	722.31
519.605	698.31
519.82	703.31
520.036	722.31
520.251	759.31
520.467	799.31
520.682	802.31
520.898	819.31
521.113	835.31
521.329	870.31
521.544	982.31
521.76	1302.31
521.975	2176.31
522.19	2110.31
522.406	1151.31
522.621	844.31
522.836	754.31
523.052	719.31
523.267	679.31
523.482	677.31
523.698	655.31
523.913	665.31
524.128	679.31
524.343	659.31
524.559	642.31
524.774	619.31
524.989	613.31
525.204	645.31
525.419	653.31
525.634	634.31
525.849	622.31
526.064	596.31
526.28	584.31
526.495	581.31
526.71	568.31
526.925	564.31
527.14	584.31
527.355	571.31
527.57	577.31
527.785	560.31
527.999	553.31
528.214	576.31
528.429	600.31
528.644	556.31
528.859	594.31
529.074	586.31
529.289	626.31
529.503	702.31
529.718	690.31
529.933	603.31
530.148	580.31
530.363	580.31
530.577	573.31
530.792	556.31
531.007	549.31
531.221	568.31
531.436	556.31
531.651	531.31
531.865	544.31
532.08	542.31
532.295	535.31
532.509	545.31
532.724	572.31
532.938	550.31
533.153	551.31
533.367	537.31
533.582	540.31
533.796	527.31
534.011	539.31
534.225	527.31
534.44	529.31
534.654	522.31
534.868	538.31
535.083	522.31
535.297	529.31
535.511	546.31
535.726	551.31
535.94	548.31
536.154	532.31
536.369	521.31
536.583	520.31
536.797	511.31
537.011	531.31
537.225	506.31
537.44	510.31
537.654	524.31
537.868	504.31
538.082	506.31
538.296	493.31
538.51	510.31
538.724	517.31
538.938	524.31
539.153	507.31
539.367	521.31
539.581	526.31
539.795	504.31
540.009	508.31
540.222	504.31
540.436	511.31
540.65	502.31
540.864	532.31
541.078	523.31
541.292	530.31
541.506	517.31
541.72	512.31
541.934	522.31
542.147	519.31
542.361	527.31
542.575	502.31
542.789	499.31
543.002	525.31
543.216	503.31
543.43	527.31
543.644	541.31
543.857	538.31
544.071	517.31
544.285	505.31
544.498	516.31
544.712	497.31
544.925	532.31
545.139	490.31
545.352	501.31
545.566	495.31
545.779	492.31
545.993	487.31
546.206	505.31
546.42	503.31
546.633	498.31
546.847	479.31
547.06	507.31
547.274	516.31
547.487	491.31
547.7	484.31
547.914	484.31
548.127	462.31
548.34	480.31
548.554	482.31
548.767	469.31
548.98	510.31
549.193	490.31
549.407	471.31
549.62	493.31
549.833	469.31
550.046	492.31
550.259	475.31
550.473	468.31
550.686	493.31
550.899	480.31
551.112	480.31
551.325	462.31
551.538	470.31
551.751	472.31
551.964	463.31
552.177	461.31
552.39	452.31
552.603	456.31
552.816	481.31
553.029	463.31
553.242	490.31
553.455	505.31
553.667	502.31
553.88	496.31
554.093	480.31
554.306	477.31
554.519	475.31
554.732	491.31
554.944	480.31
555.157	477.31
555.37	465.31
555.583	459.31
555.795	443.31
556.008	447.31
556.221	429.31
556.433	435.31
556.646	429.31
556.859	444.31
557.071	439.31
557.284	438.31
557.496	448.31
557.709	458.31
557.921	440.31
558.134	455.31
558.346	437.31
558.559	437.31
558.771	427.31
558.984	418.31
559.196	433.31
559.409	405.31
559.621	417.31
559.833	435.31
560.046	434.31
560.258	447.31
560.47	424.31
560.683	431.31
560.895	430.31
561.107	418.31
561.32	427.31
561.532	424.31
561.744	434.31
561.956	414.31
562.168	428.31
562.381	417.31
562.593	420.31
562.805	429.31
563.017	408.31
563.229	426.31
563.441	439.31
563.653	427.31
563.865	429.31
564.077	423.31
564.289	424.31
564.501	423.31
564.713	431.31
564.925	460.31
565.137	440.31
565.349	445.31
565.561	469.31
565.773	455.31
565.985	440.31
566.197	449.31
566.408	456.31
566.62	469.31
566.832	485.31
567.044	469.31
567.255	486.31
567.467	485.31
567.679	475.31
567.891	490.31
568.102	487.31
568.314	487.31
568.526	486.31
568.737	461.31
568.949	451.31
569.161	424.31
569.372	425.31
569.584	395.31
569.795	431.31
570.007	425.31
570.218	473.31
570.43	461.31
570.641	432.31
570.853	397.31
571.064	400.31
571.276	394.31
571.487	404.31
571.698	397.31
571.91	393.31
572.121	384.31
572.333	388.31
572.544	394.31
572.755	385.31
572.966	390.31
573.178	382.31
573.389	389.31
573.6	373.31
573.811	360.31
574.023	366.31
574.234	365.31
574.445	366.31
574.656	365.31
574.867	367.31
575.078	345.31
575.289	360.31
575.501	375.31
575.712	385.31
575.923	359.31
576.134	349.31
576.345	355.31
576.556	344.31
576.767	352.31
576.978	362.31
577.188	336.31
577.399	329.31
577.61	370.31
577.821	365.31
578.032	335.31
578.243	377.31
578.454	678.31
578.665	500.31
578.875	376.31
579.086	371.31
579.297	332.31
579.508	354.31
579.718	339.31
579.929	328.31
580.14	352.31
580.35	335.31
580.561	333.31
580.772	340.31
580.982	348.31
581.193	350.31
581.403	327.31
581.614	325.31
581.825	343.31
582.035	322.31
582.246	331.31
582.456	335.31
582.667	328.31
582.877	319.31
583.087	336.31
583.298	319.31
583.508	332.31
583.719	327.31
583.929	331.31
584.139	344.31
584.35	333.31
584.56	326.31
584.77	322.31
584.981	331.31
585.191	338.31
585.401	331.31
585.611	307.31
585.821	318.31
586.032	335.31
586.242	313.31
586.452	305.31
586.662	321.31
586.872	304.31
587.082	324.31
587.292	306.31
587.502	329.31
587.713	327.31
587.923	328.31
588.133	312.31
588.343	324.31
588.553	321.31
588.762	320.31
588.972	318.31
589.182	314.31
589.392	315.31
589.602	311.31
589.812	315.31
590.022	321.31
590.232	333.31
590.441	307.31
590.651	315.31
590.861	297.31
591.071	314.31
591.281	312.31
591.49	316.31
591.7	309.31
591.91	307.31
592.119	314.31
592.329	307.31
592.539	323.31
592.748	338.31
592.958	313.31
593.167	316.31
593.377	327.31
593.587	335.31
593.796	320.31
594.006	315.31
594.215	325.31
594.424	306.31
594.634	312.31
594.843	306.31
595.053	327.31
595.262	328.31
595.472	303.31
595.681	316.31
595.89	304.31
596.1	309.31
596.309	313.31
596.518	294.31
596.727	315.31
596.937	284.31
597.146	306.31
597.355	290.31
597.564	287.31
597.774	277.31
597.983	299.31
598.192	282.31
598.401	255.31
598.61	267.31
598.819	284.31
599.028	276.31
599.237	272.31
599.446	294.31
599.655	290.31
599.864	292.31
600.073	282.31
600.282	282.31
600.491	302.31
600.7	289.31
600.909	270.31
601.118	281.31
601.327	254.31
601.536	276.31
601.745	288.31
601.953	285.31
602.162	281.31
602.371	272.31
602.58	268.31
602.789	277.31
602.997	272.31
603.206	282.31
603.415	293.31
603.623	291.31
603.832	280.31
604.041	274.31
604.249	267.31
604.458	270.31
604.666	266.31
604.875	261.31
605.084	268.31
605.292	262.31
605.501	294.31
605.709	270.31
605.918	271.31
606.126	285.31
606.334	276.31
606.543	271.31
606.751	272.31
606.96	260.31
607.168	278.31
607.376	252.31
607.585	268.31
607.793	250.31
608.001	249.31
608.21	271.31
608.418	272.31
608.626	278.31
608.834	274.31
609.043	251.31
609.251	270.31
609.459	260.31
609.667	252.31
609.875	268.31
610.083	259.31
610.291	259.31
610.499	278.31
610.707	261.31
610.916	267.31
611.124	279.31
611.332	278.31
611.54	258.31
611.748	289.31
611.955	264.31
612.163	262.31
612.371	247.31
612.579	261.31
612.787	261.31
612.995	250.31
613.203	251.31
613.411	258.31
613.618	251.31
613.826	233.31
614.034	252.31
614.242	284.31
614.449	262.31
614.657	261.31
614.865	255.31
615.072	256.31
615.28	261.31
615.488	239.31
615.695	264.31
615.903	250.31
616.111	257.31
616.318	256.31
616.526	248.31
616.733	269.31
616.941	277.31
617.148	265.31
617.356	230.31
617.563	248.31
617.771	249.31
617.978	264.31
618.185	250.31
618.393	249.31
618.6	252.31
618.807	270.31
619.015	242.31
619.222	244.31
619.429	255.31
619.637	238.31
619.844	231.31
620.051	234.31
620.258	228.31
620.466	246.31
620.673	248.31
620.88	246.31
621.087	258.31
621.294	248.31
621.501	246.31
621.708	246.31
621.915	239.31
622.122	228.31
622.329	244.31
622.536	237.31
622.743	244.31
622.95	256.31
623.157	243.31
623.364	268.31
623.571	227.31
623.778	245.31
623.985	238.31
624.192	237.31
624.399	233.31
624.606	235.31
624.812	224.31
625.019	235.31
625.226	237.31
625.433	236.31
625.639	220.31
625.846	229.31
626.053	222.31
626.259	239.31
626.466	234.31
626.673	236.31
626.879	205.31
627.086	213.31
627.293	231.31
627.499	218.31
627.706	238.31
627.912	222.31
628.119	214.31
628.325	215.31
628.532	225.31
628.738	235.31
628.945	197.31
629.151	208.31
629.357	227.31
629.564	211.31
629.77	189.31
629.976	199.31
630.183	238.31
630.389	214.31
630.595	218.31
630.802	205.31
631.008	208.31
631.214	210.31
631.42	220.31
631.627	206.31
631.833	219.31
632.039	213.31
632.245	197.31
632.451	189.31
632.657	196.31
632.863	197.31
633.069	203.31
633.275	198.31
633.481	179.31
633.688	201.31
633.893	211.31
634.099	202.31
634.305	211.31
634.511	196.31
634.717	199.31
634.923	188.31
635.129	174.31
635.335	180.31
635.541	200.31
635.747	202.31
635.952	192.31
636.158	194.31
636.364	205.31
636.57	202.31
636.775	193.31
636.981	189.31
637.187	198.31
637.392	188.31
637.598	188.31
637.804	198.31
638.009	189.31
638.215	196.31
638.421	194.31
638.626	198.31
638.832	178.31
639.037	202.31
639.243	189.31
639.448	183.31
639.654	187.31
639.859	180.31
640.065	174.31
640.27	182.31
640.475	195.31
640.681	195.31
640.886	191.31
641.091	177.31
641.297	204.31
641.502	182.31
641.707	186.31
641.913	181.31
642.118	189.31
642.323	187.31
642.528	174.31
642.733	186.31
642.939	181.31
643.144	175.31
643.349	167.31
643.554	187.31
643.759	178.31
643.964	177.31
644.169	178.31
644.374	191.31
644.579	183.31
644.784	189.31
644.989	166.31
645.194	181.31
645.399	175.31
645.604	184.31
645.809	181.31
646.014	163.31
646.219	184.31
646.423	172.31
646.628	172.31
646.833	168.31
647.038	165.31
647.243	167.31
647.447	183.31
647.652	183.31
647.857	184.31
648.062	168.31
648.266	180.31
648.471	174.31
648.676	184.31
648.88	171.31
649.085	191.31
649.289	172.31
649.494	187.31
649.698	197.31
649.903	206.31
650.107	187.31
650.312	172.31
650.516	175.31
650.721	170.31
650.925	167.31
651.13	156.31
651.334	153.31
651.539	165.31
651.743	141.31
651.947	161.31
652.152	159.31
652.356	138.31
652.56	146.31
652.764	148.31
652.969	142.31
653.173	146.31
653.377	152.31
653.581	141.31
653.785	157.31
653.99	135.31
654.194	131.31
654.398	148.31
654.602	139.31
654.806	132.31
655.01	145.31
655.214	132.31
655.418	151.31
655.622	141.31
655.826	141.31
656.03	132.31
656.234	130.31
656.438	152.31
656.642	134.31
656.846	128.31
657.049	130.31
657.253	129.31
657.457	135.31
657.661	126.31
657.865	124.31
658.068	120.31
658.272	112.31
658.476	109.31
658.68	104.31
658.883	108.31
659.087	99.31
659.291	114.31
659.494	95.31
659.698	110.31
659.901	105.31
660.105	103.31
660.309	107.31
660.512	91.31
660.716	97.31
660.919	93.31
661.123	98.31
661.326	94.31
661.53	100.31
661.733	100.31
661.936	92.31
662.14	99.31
662.343	88.31
662.546	87.31
662.75	91.31
662.953	99.31
663.156	94.31
663.36	91.31
663.563	80.31
663.766	92.31
663.969	78.31
664.173	66.31
664.376	74.31
664.579	91.31
664.782	83.31
664.985	86.31
665.188	76.31
665.391	100.31
665.594	85.31
665.797	75.31
666	83.31
666.203	80.31
666.406	75.31
666.609	87.31
666.812	79.31
667.015	81.31
667.218	91.31
667.421	93.31
667.624	87.31
667.827	84.31
668.03	78.31
668.232	75.31
668.435	79.31
668.638	88.31
668.841	109.31
669.043	86.31
669.246	84.31
669.449	76.31
669.651	71.31
669.854	78.31
670.057	87.31
670.259	91.31
670.462	82.31
670.665	90.31
670.867	74.31
671.07	77.31
671.272	91.31
671.475	91.31
671.677	77.31
671.88	92.31
672.082	86.31
672.284	94.31
672.487	94.31
672.689	94.31
672.892	80.31
