Data from 1972.PennyLincolnUp.Lamp.En5.5.200Scan.071719.P1._HRD10591_15-29-23-844.txt Node
Date: Thu Jul 18 15:29:23 EDT 2019
User: cochatt
Spectrometer: HR+D1059
Trigger mode: 1
Integration Time (sec): 1.000000E-1
Scans to average: 1
Electric dark correction enabled: true
Nonlinearity correction enabled: false
Boxcar width: 0
XAxis mode: Wavelengths
Number of Pixels in Spectrum: 2048
>>>>>Begin Spectral Data<<<<<
223.165	-18.38
223.4	-18.38
223.635	-18.38
223.869	-17.38
224.104	-11.38
224.338	-25.38
224.573	-19.38
224.808	7.62
225.042	-8.38
225.277	-0.38
225.511	3.62
225.746	0.62
225.98	6.62
226.215	15.62
226.449	16.62
226.683	10.62
226.918	15.62
227.152	23.62
227.387	31.62
227.621	35.62
227.856	31.62
228.09	54.62
228.324	47.62
228.559	52.62
228.793	70.62
229.027	100.62
229.262	120.62
229.496	126.62
229.73	159.62
229.964	173.62
230.199	140.62
230.433	134.62
230.667	109.62
230.901	114.62
231.136	105.62
231.37	115.62
231.604	108.62
231.838	95.62
232.072	121.62
232.306	122.62
232.541	97.62
232.775	120.62
233.009	126.62
233.243	122.62
233.477	117.62
233.711	119.62
233.945	131.62
234.179	119.62
234.413	133.62
234.647	117.62
234.881	115.62
235.115	112.62
235.349	134.62
235.583	112.62
235.817	138.62
236.051	140.62
236.285	135.62
236.519	142.62
236.753	134.62
236.987	154.62
237.221	186.62
237.455	269.62
237.689	207.62
237.922	143.62
238.156	147.62
238.39	132.62
238.624	134.62
238.858	131.62
239.091	101.62
239.325	126.62
239.559	122.62
239.793	116.62
240.027	135.62
240.26	165.62
240.494	148.62
240.728	162.62
240.961	158.62
241.195	155.62
241.429	147.62
241.662	143.62
241.896	127.62
242.13	127.62
242.363	126.62
242.597	126.62
242.83	136.62
243.064	125.62
243.298	132.62
243.531	146.62
243.765	136.62
243.998	141.62
244.232	143.62
244.465	127.62
244.699	135.62
244.932	138.62
245.166	153.62
245.399	147.62
245.633	153.62
245.866	139.62
246.099	171.62
246.333	144.62
246.566	151.62
246.8	162.62
247.033	153.62
247.266	171.62
247.5	156.62
247.733	165.62
247.966	182.62
248.2	162.62
248.433	181.62
248.666	175.62
248.899	188.62
249.133	213.62
249.366	223.62
249.599	224.62
249.832	194.62
250.066	190.62
250.299	182.62
250.532	205.62
250.765	220.62
250.998	226.62
251.231	239.62
251.465	213.62
251.698	205.62
251.931	200.62
252.164	207.62
252.397	220.62
252.63	207.62
252.863	232.62
253.096	228.62
253.329	229.62
253.562	237.62
253.795	224.62
254.028	230.62
254.261	218.62
254.494	234.62
254.727	268.62
254.96	306.62
255.193	284.62
255.426	272.62
255.659	251.62
255.892	248.62
256.124	258.62
256.357	258.62
256.59	253.62
256.823	220.62
257.056	238.62
257.289	222.62
257.521	247.62
257.754	211.62
257.987	216.62
258.22	214.62
258.452	214.62
258.685	230.62
258.918	203.62
259.151	214.62
259.383	237.62
259.616	218.62
259.849	247.62
260.081	240.62
260.314	251.62
260.547	265.62
260.779	265.62
261.012	250.62
261.244	227.62
261.477	258.62
261.71	228.62
261.942	235.62
262.175	251.62
262.407	255.62
262.64	229.62
262.872	235.62
263.105	232.62
263.337	237.62
263.57	220.62
263.802	223.62
264.035	210.62
264.267	219.62
264.499	225.62
264.732	225.62
264.964	217.62
265.197	218.62
265.429	223.62
265.661	209.62
265.894	227.62
266.126	214.62
266.358	198.62
266.591	225.62
266.823	224.62
267.055	230.62
267.287	248.62
267.52	225.62
267.752	226.62
267.984	229.62
268.216	234.62
268.448	251.62
268.681	230.62
268.913	247.62
269.145	265.62
269.377	288.62
269.609	291.62
269.841	273.62
270.073	294.62
270.306	296.62
270.538	326.62
270.77	333.62
271.002	328.62
271.234	291.62
271.466	300.62
271.698	331.62
271.93	346.62
272.162	347.62
272.394	318.62
272.626	339.62
272.858	306.62
273.09	286.62
273.322	282.62
273.553	282.62
273.785	288.62
274.017	271.62
274.249	278.62
274.481	260.62
274.713	266.62
274.945	277.62
275.176	282.62
275.408	265.62
275.64	265.62
275.872	266.62
276.104	265.62
276.335	268.62
276.567	280.62
276.799	285.62
277.031	332.62
277.262	330.62
277.494	315.62
277.726	316.62
277.957	295.62
278.189	284.62
278.421	266.62
278.652	278.62
278.884	280.62
279.115	278.62
279.347	276.62
279.579	257.62
279.81	278.62
280.042	264.62
280.273	279.62
280.505	258.62
280.736	268.62
280.968	268.62
281.199	262.62
281.431	255.62
281.662	273.62
281.894	285.62
282.125	278.62
282.356	293.62
282.588	316.62
282.819	332.62
283.051	270.62
283.282	261.62
283.513	268.62
283.745	273.62
283.976	269.62
284.207	298.62
284.439	284.62
284.67	269.62
284.901	290.62
285.132	276.62
285.364	278.62
285.595	251.62
285.826	266.62
286.057	264.62
286.288	275.62
286.52	303.62
286.751	266.62
286.982	272.62
287.213	276.62
287.444	284.62
287.675	273.62
287.906	308.62
288.138	302.62
288.369	310.62
288.6	302.62
288.831	295.62
289.062	276.62
289.293	280.62
289.524	290.62
289.755	267.62
289.986	279.62
290.217	292.62
290.448	292.62
290.679	284.62
290.91	272.62
291.141	274.62
291.371	291.62
291.602	301.62
291.833	261.62
292.064	282.62
292.295	288.62
292.526	282.62
292.757	273.62
292.987	273.62
293.218	281.62
293.449	272.62
293.68	275.62
293.91	283.62
294.141	284.62
294.372	282.62
294.603	282.62
294.833	302.62
295.064	271.62
295.295	276.62
295.525	269.62
295.756	296.62
295.987	302.62
296.217	330.62
296.448	313.62
296.679	308.62
296.909	295.62
297.14	295.62
297.37	295.62
297.601	286.62
297.831	290.62
298.062	290.62
298.292	298.62
298.523	306.62
298.753	296.62
298.984	309.62
299.214	294.62
299.445	298.62
299.675	289.62
299.905	302.62
300.136	309.62
300.366	318.62
300.597	302.62
300.827	294.62
301.057	321.62
301.288	320.62
301.518	326.62
301.748	330.62
301.979	317.62
302.209	304.62
302.439	314.62
302.669	340.62
302.9	304.62
303.13	317.62
303.36	310.62
303.59	326.62
303.82	317.62
304.051	335.62
304.281	306.62
304.511	308.62
304.741	318.62
304.971	303.62
305.201	312.62
305.431	322.62
305.661	297.62
305.891	331.62
306.121	316.62
306.352	315.62
306.582	314.62
306.812	323.62
307.042	336.62
307.272	312.62
307.502	331.62
307.731	333.62
307.961	323.62
308.191	338.62
308.421	338.62
308.651	331.62
308.881	318.62
309.111	330.62
309.341	320.62
309.571	344.62
309.8	378.62
310.03	374.62
310.26	401.62
310.49	377.62
310.72	390.62
310.949	434.62
311.179	411.62
311.409	394.62
311.639	382.62
311.868	389.62
312.098	396.62
312.328	381.62
312.557	413.62
312.787	424.62
313.017	426.62
313.246	381.62
313.476	378.62
313.706	377.62
313.935	396.62
314.165	405.62
314.394	406.62
314.624	422.62
314.853	402.62
315.083	390.62
315.312	370.62
315.542	390.62
315.771	366.62
316.001	386.62
316.23	379.62
316.46	364.62
316.689	390.62
316.919	388.62
317.148	405.62
317.377	404.62
317.607	398.62
317.836	384.62
318.065	378.62
318.295	370.62
318.524	375.62
318.753	365.62
318.983	386.62
319.212	392.62
319.441	395.62
319.67	413.62
319.9	399.62
320.129	381.62
320.358	387.62
320.587	395.62
320.816	395.62
321.046	409.62
321.275	401.62
321.504	397.62
321.733	427.62
321.962	416.62
322.191	442.62
322.42	445.62
322.649	470.62
322.878	483.62
323.108	494.62
323.337	540.62
323.566	562.62
323.795	593.62
324.024	666.62
324.253	814.62
324.482	1205.62
324.71	1890.62
324.939	2791.62
325.168	2420.62
325.397	1233.62
325.626	806.62
325.855	632.62
326.084	594.62
326.313	557.62
326.542	584.62
326.77	639.62
326.999	750.62
327.228	1026.62
327.457	1670.62
327.686	2052.62
327.914	1383.62
328.143	902.62
328.372	760.62
328.6	694.62
328.829	646.62
329.058	654.62
329.287	687.62
329.515	630.62
329.744	554.62
329.972	557.62
330.201	591.62
330.43	655.62
330.658	656.62
330.887	698.62
331.115	658.62
331.344	578.62
331.572	524.62
331.801	525.62
332.03	503.62
332.258	504.62
332.486	451.62
332.715	470.62
332.943	466.62
333.172	459.62
333.4	469.62
333.629	455.62
333.857	491.62
334.085	500.62
334.314	532.62
334.542	586.62
334.771	580.62
334.999	497.62
335.227	491.62
335.455	462.62
335.684	442.62
335.912	437.62
336.14	446.62
336.369	440.62
336.597	437.62
336.825	442.62
337.053	426.62
337.281	403.62
337.51	440.62
337.738	423.62
337.966	435.62
338.194	455.62
338.422	444.62
338.65	418.62
338.878	407.62
339.106	426.62
339.334	407.62
339.562	427.62
339.79	399.62
340.018	415.62
340.246	425.62
340.474	422.62
340.702	418.62
340.93	419.62
341.158	414.62
341.386	430.62
341.614	412.62
341.842	440.62
342.07	417.62
342.298	418.62
342.526	425.62
342.754	413.62
342.981	426.62
343.209	395.62
343.437	402.62
343.665	396.62
343.893	397.62
344.12	376.62
344.348	394.62
344.576	416.62
344.804	420.62
345.031	430.62
345.259	439.62
345.487	450.62
345.714	436.62
345.942	412.62
346.17	408.62
346.397	412.62
346.625	411.62
346.853	420.62
347.08	393.62
347.308	402.62
347.535	424.62
347.763	413.62
347.99	412.62
348.218	425.62
348.445	429.62
348.673	424.62
348.9	408.62
349.128	404.62
349.355	386.62
349.583	396.62
349.81	390.62
350.037	383.62
350.265	382.62
350.492	384.62
350.72	383.62
350.947	411.62
351.174	424.62
351.402	411.62
351.629	411.62
351.856	424.62
352.083	419.62
352.311	438.62
352.538	434.62
352.765	418.62
352.992	419.62
353.22	399.62
353.447	407.62
353.674	394.62
353.901	384.62
354.128	373.62
354.355	377.62
354.583	342.62
354.81	365.62
355.037	371.62
355.264	366.62
355.491	365.62
355.718	357.62
355.945	335.62
356.172	347.62
356.399	370.62
356.626	355.62
356.853	350.62
357.08	362.62
357.307	357.62
357.534	363.62
357.761	356.62
357.988	364.62
358.215	382.62
358.441	363.62
358.668	368.62
358.895	362.62
359.122	370.62
359.349	363.62
359.576	402.62
359.802	416.62
360.029	461.62
360.256	482.62
360.483	450.62
360.709	415.62
360.936	406.62
361.163	398.62
361.39	407.62
361.616	414.62
361.843	396.62
362.07	416.62
362.296	408.62
362.523	414.62
362.749	406.62
362.976	390.62
363.203	385.62
363.429	378.62
363.656	379.62
363.882	369.62
364.109	383.62
364.335	380.62
364.562	378.62
364.788	385.62
365.015	398.62
365.241	377.62
365.468	382.62
365.694	388.62
365.92	395.62
366.147	371.62
366.373	354.62
366.599	365.62
366.826	364.62
367.052	378.62
367.278	378.62
367.505	361.62
367.731	362.62
367.957	366.62
368.184	364.62
368.41	376.62
368.636	393.62
368.862	390.62
369.089	382.62
369.315	373.62
369.541	383.62
369.767	367.62
369.993	362.62
370.219	366.62
370.445	368.62
370.672	372.62
370.898	353.62
371.124	363.62
371.35	367.62
371.576	345.62
371.802	349.62
372.028	366.62
372.254	350.62
372.48	380.62
372.706	356.62
372.932	349.62
373.158	356.62
373.384	380.62
373.61	372.62
373.835	357.62
374.061	356.62
374.287	371.62
374.513	380.62
374.739	383.62
374.965	354.62
375.191	360.62
375.416	356.62
375.642	362.62
375.868	366.62
376.094	384.62
376.319	361.62
376.545	366.62
376.771	355.62
376.997	339.62
377.222	340.62
377.448	366.62
377.674	340.62
377.899	337.62
378.125	351.62
378.35	363.62
378.576	351.62
378.802	362.62
379.027	366.62
379.253	374.62
379.478	363.62
379.704	362.62
379.929	367.62
380.155	348.62
380.38	369.62
380.606	351.62
380.831	377.62
381.057	380.62
381.282	374.62
381.507	362.62
381.733	365.62
381.958	374.62
382.184	333.62
382.409	362.62
382.634	360.62
382.86	349.62
383.085	346.62
383.31	359.62
383.535	366.62
383.761	363.62
383.986	347.62
384.211	358.62
384.436	364.62
384.662	368.62
384.887	389.62
385.112	388.62
385.337	381.62
385.562	372.62
385.787	371.62
386.013	383.62
386.238	398.62
386.463	380.62
386.688	379.62
386.913	388.62
387.138	363.62
387.363	365.62
387.588	370.62
387.813	380.62
388.038	396.62
388.263	378.62
388.488	396.62
388.713	378.62
388.938	371.62
389.163	374.62
389.387	377.62
389.612	368.62
389.837	390.62
390.062	374.62
390.287	382.62
390.512	388.62
390.736	382.62
390.961	364.62
391.186	358.62
391.411	361.62
391.636	377.62
391.86	376.62
392.085	398.62
392.31	386.62
392.534	372.62
392.759	392.62
392.984	388.62
393.208	374.62
393.433	387.62
393.658	374.62
393.882	388.62
394.107	377.62
394.331	364.62
394.556	389.62
394.78	368.62
395.005	376.62
395.229	360.62
395.454	392.62
395.678	396.62
395.903	409.62
396.127	440.62
396.352	428.62
396.576	383.62
396.801	401.62
397.025	420.62
397.249	388.62
397.474	399.62
397.698	412.62
397.922	415.62
398.147	408.62
398.371	437.62
398.595	431.62
398.82	420.62
399.044	416.62
399.268	458.62
399.492	432.62
399.717	464.62
399.941	477.62
400.165	526.62
400.389	539.62
400.613	487.62
400.837	449.62
401.062	446.62
401.286	437.62
401.51	440.62
401.734	438.62
401.958	421.62
402.182	458.62
402.406	466.62
402.63	448.62
402.854	446.62
403.078	453.62
403.302	426.62
403.526	470.62
403.75	440.62
403.974	461.62
404.198	413.62
404.422	456.62
404.645	464.62
404.869	450.62
405.093	485.62
405.317	540.62
405.541	570.62
405.765	503.62
405.988	471.62
406.212	484.62
406.436	523.62
406.66	521.62
406.883	491.62
407.107	521.62
407.331	558.62
407.555	615.62
407.778	621.62
408.002	563.62
408.226	519.62
408.449	498.62
408.673	511.62
408.896	542.62
409.12	572.62
409.344	536.62
409.567	469.62
409.791	474.62
410.014	471.62
410.238	456.62
410.461	445.62
410.685	478.62
410.908	487.62
411.132	512.62
411.355	548.62
411.578	504.62
411.802	460.62
412.025	458.62
412.249	452.62
412.472	490.62
412.695	520.62
412.919	518.62
413.142	462.62
413.365	437.62
413.589	456.62
413.812	414.62
414.035	441.62
414.258	424.62
414.482	442.62
414.705	431.62
414.928	431.62
415.151	416.62
415.374	423.62
415.597	415.62
415.821	426.62
416.044	428.62
416.267	430.62
416.49	424.62
416.713	432.62
416.936	429.62
417.159	403.62
417.382	430.62
417.605	450.62
417.828	437.62
418.051	455.62
418.274	446.62
418.497	434.62
418.72	418.62
418.943	422.62
419.166	430.62
419.389	447.62
419.611	429.62
419.834	447.62
420.057	451.62
420.28	457.62
420.503	460.62
420.726	453.62
420.948	476.62
421.171	522.62
421.394	541.62
421.617	467.62
421.839	465.62
422.062	451.62
422.285	467.62
422.507	537.62
422.73	620.62
422.953	590.62
423.175	516.62
423.398	467.62
423.621	499.62
423.843	484.62
424.066	498.62
424.288	503.62
424.511	534.62
424.733	593.62
424.956	683.62
425.178	634.62
425.401	632.62
425.623	667.62
425.846	560.62
426.068	510.62
426.291	507.62
426.513	522.62
426.735	524.62
426.958	568.62
427.18	676.62
427.402	806.62
427.625	892.62
427.847	792.62
428.069	657.62
428.292	582.62
428.514	521.62
428.736	494.62
428.958	495.62
429.181	460.62
429.403	463.62
429.625	488.62
429.847	534.62
430.069	576.62
430.292	593.62
430.514	501.62
430.736	469.62
430.958	478.62
431.18	441.62
431.402	418.62
431.624	409.62
431.846	427.62
432.068	426.62
432.29	422.62
432.512	436.62
432.734	421.62
432.956	448.62
433.178	466.62
433.4	476.62
433.622	448.62
433.844	422.62
434.066	446.62
434.287	444.62
434.509	444.62
434.731	436.62
434.953	451.62
435.175	444.62
435.397	493.62
435.618	498.62
435.84	547.62
436.062	664.62
436.284	728.62
436.505	612.62
436.727	551.62
436.949	481.62
437.17	476.62
437.392	471.62
437.614	493.62
437.835	536.62
438.057	659.62
438.278	765.62
438.5	730.62
438.721	822.62
438.943	758.62
439.165	599.62
439.386	540.62
439.608	542.62
439.829	534.62
440.05	573.62
440.272	636.62
440.493	598.62
440.715	536.62
440.936	494.62
441.158	494.62
441.379	476.62
441.6	486.62
441.822	524.62
442.043	556.62
442.264	639.62
442.486	706.62
442.707	591.62
442.928	550.62
443.149	541.62
443.371	574.62
443.592	597.62
443.813	699.62
444.034	752.62
444.255	606.62
444.476	539.62
444.698	515.62
444.919	516.62
445.14	590.62
445.361	563.62
445.582	581.62
445.803	645.62
446.024	767.62
446.245	749.62
446.466	694.62
446.687	571.62
446.908	517.62
447.129	500.62
447.35	479.62
447.571	474.62
447.792	484.62
448.013	482.62
448.234	494.62
448.455	573.62
448.675	669.62
448.896	780.62
449.117	664.62
449.338	619.62
449.559	719.62
449.779	859.62
450	679.62
450.221	542.62
450.442	504.62
450.662	484.62
450.883	483.62
451.104	531.62
451.324	500.62
451.545	468.62
451.766	455.62
451.986	452.62
452.207	420.62
452.428	404.62
452.648	426.62
452.869	450.62
453.089	431.62
453.31	456.62
453.53	436.62
453.751	425.62
453.971	452.62
454.192	468.62
454.412	452.62
454.633	412.62
454.853	427.62
455.073	421.62
455.294	461.62
455.514	535.62
455.734	511.62
455.955	430.62
456.175	402.62
456.395	407.62
456.616	390.62
456.836	380.62
457.056	393.62
457.276	397.62
457.497	398.62
457.717	373.62
457.937	394.62
458.157	401.62
458.377	422.62
458.598	444.62
458.818	508.62
459.038	592.62
459.258	626.62
459.478	505.62
459.698	465.62
459.918	429.62
460.138	440.62
460.358	445.62
460.578	426.62
460.798	429.62
461.018	434.62
461.238	416.62
461.458	426.62
461.678	421.62
461.898	414.62
462.118	420.62
462.338	431.62
462.558	434.62
462.777	431.62
462.997	457.62
463.217	445.62
463.437	431.62
463.657	426.62
463.876	452.62
464.096	451.62
464.316	448.62
464.536	472.62
464.755	462.62
464.975	478.62
465.195	539.62
465.414	621.62
465.634	531.62
465.854	478.62
466.073	456.62
466.293	439.62
466.512	416.62
466.732	420.62
466.951	442.62
467.171	433.62
467.391	434.62
467.61	440.62
467.829	455.62
468.049	452.62
468.268	431.62
468.488	419.62
468.707	420.62
468.927	421.62
469.146	404.62
469.365	410.62
469.585	424.62
469.804	408.62
470.023	426.62
470.243	440.62
470.462	436.62
470.681	456.62
470.901	459.62
471.12	418.62
471.339	426.62
471.558	441.62
471.777	454.62
471.997	431.62
472.216	427.62
472.435	494.62
472.654	498.62
472.873	444.62
473.092	422.62
473.311	436.62
473.53	442.62
473.749	449.62
473.968	486.62
474.187	632.62
474.406	630.62
474.625	511.62
474.844	460.62
475.063	422.62
475.282	440.62
475.501	431.62
475.72	436.62
475.939	428.62
476.158	453.62
476.377	429.62
476.596	427.62
476.814	452.62
477.033	461.62
477.252	446.62
477.471	441.62
477.69	481.62
477.908	468.62
478.127	450.62
478.346	459.62
478.564	484.62
478.783	444.62
479.002	467.62
479.22	493.62
479.439	515.62
479.658	515.62
479.876	501.62
480.095	495.62
480.313	544.62
480.532	520.62
480.751	514.62
480.969	542.62
481.188	621.62
481.406	686.62
481.624	586.62
481.843	553.62
482.061	543.62
482.28	535.62
482.498	511.62
482.717	483.62
482.935	512.62
483.153	527.62
483.372	521.62
483.59	515.62
483.808	496.62
484.027	507.62
484.245	518.62
484.463	515.62
484.681	503.62
484.9	524.62
485.118	532.62
485.336	531.62
485.554	486.62
485.772	502.62
485.99	527.62
486.209	527.62
486.427	541.62
486.645	563.62
486.863	572.62
487.081	563.62
487.299	559.62
487.517	530.62
487.735	566.62
487.953	559.62
488.171	547.62
488.389	568.62
488.607	555.62
488.825	572.62
489.043	539.62
489.261	545.62
489.479	566.62
489.696	566.62
489.914	540.62
490.132	577.62
490.35	559.62
490.568	573.62
490.786	558.62
491.003	602.62
491.221	601.62
491.439	608.62
491.657	614.62
491.874	653.62
492.092	612.62
492.31	628.62
492.527	631.62
492.745	640.62
492.963	651.62
493.18	660.62
493.398	620.62
493.615	629.62
493.833	654.62
494.05	662.62
494.268	652.62
494.485	636.62
494.703	649.62
494.92	642.62
495.138	643.62
495.355	628.62
495.573	651.62
495.79	638.62
496.008	663.62
496.225	641.62
496.442	637.62
496.66	648.62
496.877	639.62
497.094	632.62
497.312	658.62
497.529	664.62
497.746	700.62
497.963	697.62
498.181	694.62
498.398	701.62
498.615	703.62
498.832	710.62
499.049	690.62
499.267	722.62
499.484	729.62
499.701	731.62
499.918	746.62
500.135	760.62
500.352	801.62
500.569	784.62
500.786	820.62
501.003	794.62
501.22	792.62
501.437	767.62
501.654	775.62
501.871	767.62
502.088	758.62
502.305	714.62
502.522	727.62
502.739	719.62
502.956	683.62
503.172	697.62
503.389	690.62
503.606	692.62
503.823	685.62
504.04	674.62
504.256	662.62
504.473	645.62
504.69	634.62
504.907	652.62
505.123	672.62
505.34	601.62
505.557	633.62
505.773	643.62
505.99	639.62
506.207	618.62
506.423	632.62
506.64	640.62
506.856	624.62
507.073	604.62
507.289	627.62
507.506	630.62
507.722	638.62
507.939	692.62
508.155	627.62
508.372	630.62
508.588	630.62
508.805	621.62
509.021	616.62
509.238	654.62
509.454	648.62
509.67	650.62
509.887	609.62
510.103	628.62
510.319	662.62
510.536	757.62
510.752	1344.62
510.968	1033.62
511.184	657.62
511.401	626.62
511.617	591.62
511.833	594.62
512.049	579.62
512.265	605.62
512.481	590.62
512.698	592.62
512.914	589.62
513.13	580.62
513.346	589.62
513.562	573.62
513.778	630.62
513.994	616.62
514.21	631.62
514.426	642.62
514.642	690.62
514.858	751.62
515.074	794.62
515.29	973.62
515.506	1456.62
515.721	1133.62
515.937	780.62
516.153	703.62
516.369	668.62
516.585	628.62
516.801	616.62
517.016	619.62
517.232	591.62
517.448	588.62
517.664	582.62
517.879	592.62
518.095	579.62
518.311	600.62
518.527	593.62
518.742	562.62
518.958	603.62
519.173	615.62
519.389	573.62
519.605	596.62
519.82	608.62
520.036	604.62
520.251	638.62
520.467	674.62
520.682	663.62
520.898	690.62
521.113	739.62
521.329	791.62
521.544	908.62
521.76	1186.62
521.975	2026.62
522.19	1944.62
522.406	1015.62
522.621	729.62
522.836	634.62
523.052	636.62
523.267	605.62
523.482	586.62
523.698	572.62
523.913	554.62
524.128	535.62
524.343	539.62
524.559	514.62
524.774	527.62
524.989	519.62
525.204	522.62
525.419	526.62
525.634	490.62
525.849	499.62
526.064	485.62
526.28	470.62
526.495	471.62
526.71	477.62
526.925	473.62
527.14	473.62
527.355	486.62
527.57	468.62
527.785	443.62
527.999	429.62
528.214	470.62
528.429	478.62
528.644	470.62
528.859	478.62
529.074	478.62
529.289	507.62
529.503	601.62
529.718	587.62
529.933	533.62
530.148	489.62
530.363	513.62
530.577	461.62
530.792	444.62
531.007	468.62
531.221	464.62
531.436	450.62
531.651	435.62
531.865	437.62
532.08	436.62
532.295	450.62
532.509	441.62
532.724	445.62
532.938	438.62
533.153	454.62
533.367	435.62
533.582	431.62
533.796	426.62
534.011	436.62
534.225	414.62
534.44	421.62
534.654	416.62
534.868	432.62
535.083	433.62
535.297	426.62
535.511	431.62
535.726	454.62
535.94	440.62
536.154	434.62
536.369	429.62
536.583	429.62
536.797	437.62
537.011	427.62
537.225	425.62
537.44	423.62
537.654	409.62
537.868	415.62
538.082	426.62
538.296	444.62
538.51	437.62
538.724	430.62
538.938	426.62
539.153	437.62
539.367	442.62
539.581	454.62
539.795	415.62
540.009	438.62
540.222	413.62
540.436	424.62
540.65	418.62
540.864	403.62
541.078	430.62
541.292	443.62
541.506	442.62
541.72	416.62
541.934	424.62
542.147	430.62
542.361	420.62
542.575	423.62
542.789	396.62
543.002	423.62
543.216	433.62
543.43	447.62
543.644	419.62
543.857	416.62
544.071	427.62
544.285	438.62
544.498	409.62
544.712	402.62
544.925	408.62
545.139	422.62
545.352	412.62
545.566	400.62
545.779	387.62
545.993	398.62
546.206	412.62
546.42	380.62
546.633	395.62
546.847	418.62
547.06	392.62
547.274	403.62
547.487	414.62
547.7	398.62
547.914	405.62
548.127	405.62
548.34	386.62
548.554	394.62
548.767	401.62
548.98	398.62
549.193	384.62
549.407	407.62
549.62	372.62
549.833	375.62
550.046	388.62
550.259	392.62
550.473	391.62
550.686	388.62
550.899	367.62
551.112	382.62
551.325	380.62
551.538	383.62
551.751	376.62
551.964	394.62
552.177	397.62
552.39	378.62
552.603	391.62
552.816	387.62
553.029	383.62
553.242	394.62
553.455	384.62
553.667	393.62
553.88	406.62
554.093	402.62
554.306	396.62
554.519	422.62
554.732	372.62
554.944	396.62
555.157	380.62
555.37	383.62
555.583	380.62
555.795	384.62
556.008	363.62
556.221	361.62
556.433	362.62
556.646	378.62
556.859	372.62
557.071	359.62
557.284	358.62
557.496	356.62
557.709	336.62
557.921	370.62
558.134	366.62
558.346	345.62
558.559	334.62
558.771	368.62
558.984	362.62
559.196	359.62
559.409	364.62
559.621	351.62
559.833	353.62
560.046	330.62
560.258	336.62
560.47	354.62
560.683	348.62
560.895	344.62
561.107	350.62
561.32	347.62
561.532	356.62
561.744	346.62
561.956	339.62
562.168	344.62
562.381	332.62
562.593	340.62
562.805	340.62
563.017	346.62
563.229	357.62
563.441	341.62
563.653	356.62
563.865	328.62
564.077	342.62
564.289	345.62
564.501	365.62
564.713	350.62
564.925	382.62
565.137	359.62
565.349	367.62
565.561	357.62
565.773	380.62
565.985	366.62
566.197	394.62
566.408	390.62
566.62	388.62
566.832	380.62
567.044	381.62
567.255	392.62
567.467	405.62
567.679	394.62
567.891	378.62
568.102	410.62
568.314	396.62
568.526	401.62
568.737	384.62
568.949	371.62
569.161	348.62
569.372	340.62
569.584	359.62
569.795	371.62
570.007	362.62
570.218	399.62
570.43	383.62
570.641	360.62
570.853	326.62
571.064	329.62
571.276	330.62
571.487	343.62
571.698	342.62
571.91	312.62
572.121	319.62
572.333	330.62
572.544	311.62
572.755	310.62
572.966	323.62
573.178	324.62
573.389	315.62
573.6	342.62
573.811	310.62
574.023	300.62
574.234	316.62
574.445	314.62
574.656	302.62
574.867	301.62
575.078	310.62
575.289	315.62
575.501	320.62
575.712	315.62
575.923	301.62
576.134	309.62
576.345	299.62
576.556	308.62
576.767	296.62
576.978	295.62
577.188	304.62
577.399	303.62
577.61	291.62
577.821	295.62
578.032	296.62
578.243	326.62
578.454	611.62
578.665	431.62
578.875	309.62
579.086	310.62
579.297	299.62
579.508	285.62
579.718	288.62
579.929	284.62
580.14	286.62
580.35	275.62
580.561	298.62
580.772	290.62
580.982	274.62
581.193	265.62
581.403	287.62
581.614	303.62
581.825	282.62
582.035	272.62
582.246	275.62
582.456	280.62
582.667	282.62
582.877	270.62
583.087	286.62
583.298	266.62
583.508	291.62
583.719	278.62
583.929	290.62
584.139	274.62
584.35	288.62
584.56	280.62
584.77	277.62
584.981	282.62
585.191	268.62
585.401	284.62
585.611	281.62
585.821	290.62
586.032	283.62
586.242	282.62
586.452	266.62
586.662	258.62
586.872	264.62
587.082	266.62
587.292	268.62
587.502	265.62
587.713	260.62
587.923	274.62
588.133	272.62
588.343	252.62
588.553	272.62
588.762	267.62
588.972	262.62
589.182	270.62
589.392	277.62
589.602	269.62
589.812	279.62
590.022	266.62
590.232	270.62
590.441	256.62
590.651	268.62
590.861	275.62
591.071	266.62
591.281	282.62
591.49	272.62
591.7	260.62
591.91	275.62
592.119	257.62
592.329	262.62
592.539	262.62
592.748	286.62
592.958	279.62
593.167	251.62
593.377	248.62
593.587	294.62
593.796	266.62
594.006	269.62
594.215	292.62
594.424	272.62
594.634	259.62
594.843	267.62
595.053	255.62
595.262	256.62
595.472	255.62
595.681	262.62
595.89	248.62
596.1	276.62
596.309	249.62
596.518	272.62
596.727	260.62
596.937	254.62
597.146	277.62
597.355	258.62
597.564	259.62
597.774	243.62
597.983	230.62
598.192	230.62
598.401	254.62
598.61	247.62
598.819	242.62
599.028	243.62
599.237	222.62
599.446	258.62
599.655	248.62
599.864	247.62
600.073	243.62
600.282	247.62
600.491	237.62
600.7	229.62
600.909	227.62
601.118	238.62
601.327	239.62
601.536	237.62
601.745	238.62
601.953	231.62
602.162	224.62
602.371	220.62
602.58	223.62
602.789	235.62
602.997	229.62
603.206	232.62
603.415	215.62
603.623	219.62
603.832	210.62
604.041	225.62
604.249	217.62
604.458	230.62
604.666	232.62
604.875	220.62
605.084	224.62
605.292	225.62
605.501	245.62
605.709	229.62
605.918	226.62
606.126	231.62
606.334	234.62
606.543	226.62
606.751	234.62
606.96	222.62
607.168	227.62
607.376	219.62
607.585	220.62
607.793	231.62
608.001	216.62
608.21	222.62
608.418	218.62
608.626	216.62
608.834	246.62
609.043	203.62
609.251	207.62
609.459	222.62
609.667	227.62
609.875	224.62
610.083	218.62
610.291	212.62
610.499	215.62
610.707	208.62
610.916	227.62
611.124	240.62
611.332	223.62
611.54	223.62
611.748	213.62
611.955	213.62
612.163	227.62
612.371	231.62
612.579	216.62
612.787	235.62
612.995	234.62
613.203	204.62
613.411	218.62
613.618	210.62
613.826	214.62
614.034	212.62
614.242	214.62
614.449	218.62
614.657	215.62
614.865	211.62
615.072	215.62
615.28	228.62
615.488	225.62
615.695	198.62
615.903	211.62
616.111	204.62
616.318	215.62
616.526	217.62
616.733	220.62
616.941	225.62
617.148	211.62
617.356	220.62
617.563	213.62
617.771	228.62
617.978	209.62
618.185	193.62
618.393	223.62
618.6	216.62
618.807	215.62
619.015	210.62
619.222	212.62
619.429	211.62
619.637	210.62
619.844	225.62
620.051	233.62
620.258	205.62
620.466	211.62
620.673	193.62
620.88	204.62
621.087	205.62
621.294	203.62
621.501	202.62
621.708	211.62
621.915	205.62
622.122	216.62
622.329	198.62
622.536	195.62
622.743	211.62
622.95	212.62
623.157	208.62
623.364	191.62
623.571	198.62
623.778	199.62
623.985	204.62
624.192	187.62
624.399	185.62
624.606	198.62
624.812	196.62
625.019	197.62
625.226	203.62
625.433	205.62
625.639	198.62
625.846	196.62
626.053	196.62
626.259	192.62
626.466	197.62
626.673	182.62
626.879	194.62
627.086	190.62
627.293	204.62
627.499	169.62
627.706	197.62
627.912	198.62
628.119	196.62
628.325	178.62
628.532	184.62
628.738	199.62
628.945	182.62
629.151	178.62
629.357	191.62
629.564	171.62
629.77	197.62
629.976	178.62
630.183	194.62
630.389	178.62
630.595	184.62
630.802	181.62
631.008	186.62
631.214	176.62
631.42	184.62
631.627	179.62
631.833	174.62
632.039	178.62
632.245	184.62
632.451	170.62
632.657	176.62
632.863	174.62
633.069	173.62
633.275	173.62
633.481	179.62
633.688	168.62
633.893	172.62
634.099	187.62
634.305	183.62
634.511	172.62
634.717	178.62
634.923	154.62
635.129	184.62
635.335	166.62
635.541	171.62
635.747	170.62
635.952	162.62
636.158	167.62
636.364	177.62
636.57	174.62
636.775	185.62
636.981	158.62
637.187	190.62
637.392	168.62
637.598	165.62
637.804	171.62
638.009	173.62
638.215	169.62
638.421	171.62
638.626	167.62
638.832	174.62
639.037	160.62
639.243	160.62
639.448	167.62
639.654	174.62
639.859	166.62
640.065	168.62
640.27	142.62
640.475	163.62
640.681	162.62
640.886	168.62
641.091	162.62
641.297	176.62
641.502	145.62
641.707	163.62
641.913	163.62
642.118	159.62
642.323	155.62
642.528	167.62
642.733	165.62
642.939	166.62
643.144	160.62
643.349	156.62
643.554	157.62
643.759	143.62
643.964	160.62
644.169	159.62
644.374	169.62
644.579	162.62
644.784	157.62
644.989	158.62
645.194	159.62
645.399	149.62
645.604	157.62
645.809	155.62
646.014	166.62
646.219	168.62
646.423	153.62
646.628	141.62
646.833	153.62
647.038	156.62
647.243	143.62
647.447	158.62
647.652	152.62
647.857	161.62
648.062	154.62
648.266	158.62
648.471	146.62
648.676	157.62
648.88	154.62
649.085	161.62
649.289	154.62
649.494	151.62
649.698	180.62
649.903	185.62
650.107	152.62
650.312	168.62
650.516	145.62
650.721	142.62
650.925	138.62
651.13	128.62
651.334	138.62
651.539	144.62
651.743	142.62
651.947	139.62
652.152	131.62
652.356	128.62
652.56	133.62
652.764	135.62
652.969	129.62
653.173	135.62
653.377	131.62
653.581	151.62
653.785	134.62
653.99	134.62
654.194	133.62
654.398	135.62
654.602	139.62
654.806	134.62
655.01	137.62
655.214	140.62
655.418	134.62
655.622	140.62
655.826	130.62
656.03	129.62
656.234	127.62
656.438	136.62
656.642	118.62
656.846	116.62
657.049	119.62
657.253	117.62
657.457	109.62
657.661	105.62
657.865	104.62
658.068	115.62
658.272	106.62
658.476	108.62
658.68	101.62
658.883	102.62
659.087	78.62
659.291	95.62
659.494	111.62
659.698	105.62
659.901	93.62
660.105	96.62
660.309	97.62
660.512	88.62
660.716	91.62
660.919	99.62
661.123	86.62
661.326	86.62
661.53	89.62
661.733	86.62
661.936	101.62
662.14	94.62
662.343	91.62
662.546	79.62
662.75	79.62
662.953	84.62
663.156	84.62
663.36	87.62
663.563	90.62
663.766	88.62
663.969	78.62
664.173	87.62
664.376	84.62
664.579	72.62
664.782	85.62
664.985	84.62
665.188	89.62
665.391	68.62
665.594	97.62
665.797	73.62
666	83.62
666.203	79.62
666.406	70.62
666.609	71.62
666.812	80.62
667.015	72.62
667.218	79.62
667.421	81.62
667.624	87.62
667.827	83.62
668.03	85.62
668.232	87.62
668.435	78.62
668.638	104.62
668.841	90.62
669.043	78.62
669.246	80.62
669.449	83.62
669.651	79.62
669.854	93.62
670.057	75.62
670.259	89.62
670.462	87.62
670.665	76.62
670.867	85.62
671.07	90.62
671.272	70.62
671.475	85.62
671.677	85.62
671.88	78.62
672.082	103.62
672.284	92.62
672.487	67.62
672.689	76.62
672.892	86.62
