Data from 1972.PennyLincolnUp.Lamp.En5.5.200Scan.071719.P1._HRD10591_15-27-32-844.txt Node
Date: Thu Jul 18 15:27:32 EDT 2019
User: cochatt
Spectrometer: HR+D1059
Trigger mode: 1
Integration Time (sec): 1.000000E-1
Scans to average: 1
Electric dark correction enabled: true
Nonlinearity correction enabled: false
Boxcar width: 0
XAxis mode: Wavelengths
Number of Pixels in Spectrum: 2048
>>>>>Begin Spectral Data<<<<<
223.165	-12.38
223.4	-12.38
223.635	-12.38
223.869	-11.38
224.104	-18.38
224.338	-22.38
224.573	-14.38
224.808	-7.38
225.042	-2.38
225.277	7.62
225.511	-5.38
225.746	-3.38
225.98	-4.38
226.215	18.62
226.449	20.62
226.683	14.62
226.918	23.62
227.152	16.62
227.387	42.62
227.621	45.62
227.856	53.62
228.09	43.62
228.324	54.62
228.559	56.62
228.793	75.62
229.027	98.62
229.262	101.62
229.496	109.62
229.73	134.62
229.964	163.62
230.199	130.62
230.433	112.62
230.667	126.62
230.901	104.62
231.136	105.62
231.37	119.62
231.604	122.62
231.838	118.62
232.072	117.62
232.306	121.62
232.541	115.62
232.775	120.62
233.009	122.62
233.243	121.62
233.477	116.62
233.711	116.62
233.945	126.62
234.179	126.62
234.413	112.62
234.647	103.62
234.881	112.62
235.115	117.62
235.349	108.62
235.583	119.62
235.817	129.62
236.051	112.62
236.285	111.62
236.519	128.62
236.753	138.62
236.987	157.62
237.221	189.62
237.455	253.62
237.689	193.62
237.922	141.62
238.156	120.62
238.39	134.62
238.624	111.62
238.858	119.62
239.091	122.62
239.325	116.62
239.559	116.62
239.793	132.62
240.027	139.62
240.26	139.62
240.494	150.62
240.728	155.62
240.961	168.62
241.195	145.62
241.429	145.62
241.662	122.62
241.896	129.62
242.13	136.62
242.363	139.62
242.597	133.62
242.83	118.62
243.064	140.62
243.298	141.62
243.531	149.62
243.765	137.62
243.998	133.62
244.232	133.62
244.465	140.62
244.699	132.62
244.932	143.62
245.166	149.62
245.399	134.62
245.633	137.62
245.866	128.62
246.099	156.62
246.333	143.62
246.566	152.62
246.8	164.62
247.033	140.62
247.266	154.62
247.5	148.62
247.733	171.62
247.966	169.62
248.2	165.62
248.433	158.62
248.666	177.62
248.899	184.62
249.133	200.62
249.366	201.62
249.599	193.62
249.832	187.62
250.066	187.62
250.299	182.62
250.532	185.62
250.765	215.62
250.998	224.62
251.231	221.62
251.465	234.62
251.698	213.62
251.931	192.62
252.164	181.62
252.397	197.62
252.63	209.62
252.863	189.62
253.096	218.62
253.329	228.62
253.562	217.62
253.795	210.62
254.028	219.62
254.261	198.62
254.494	230.62
254.727	249.62
254.96	290.62
255.193	273.62
255.426	240.62
255.659	229.62
255.892	238.62
256.124	238.62
256.357	245.62
256.59	240.62
256.823	222.62
257.056	221.62
257.289	208.62
257.521	219.62
257.754	197.62
257.987	210.62
258.22	206.62
258.452	212.62
258.685	208.62
258.918	196.62
259.151	204.62
259.383	211.62
259.616	193.62
259.849	229.62
260.081	225.62
260.314	241.62
260.547	233.62
260.779	245.62
261.012	229.62
261.244	207.62
261.477	224.62
261.71	236.62
261.942	221.62
262.175	244.62
262.407	220.62
262.64	208.62
262.872	211.62
263.105	200.62
263.337	214.62
263.57	221.62
263.802	205.62
264.035	199.62
264.267	196.62
264.499	208.62
264.732	218.62
264.964	208.62
265.197	198.62
265.429	200.62
265.661	206.62
265.894	181.62
266.126	203.62
266.358	217.62
266.591	215.62
266.823	222.62
267.055	207.62
267.287	215.62
267.52	229.62
267.752	215.62
267.984	207.62
268.216	215.62
268.448	222.62
268.681	230.62
268.913	244.62
269.145	266.62
269.377	267.62
269.609	256.62
269.841	256.62
270.073	274.62
270.306	288.62
270.538	302.62
270.77	308.62
271.002	291.62
271.234	287.62
271.466	288.62
271.698	297.62
271.93	295.62
272.162	301.62
272.394	305.62
272.626	313.62
272.858	272.62
273.09	284.62
273.322	269.62
273.553	272.62
273.785	263.62
274.017	248.62
274.249	263.62
274.481	252.62
274.713	261.62
274.945	267.62
275.176	277.62
275.408	265.62
275.64	265.62
275.872	233.62
276.104	270.62
276.335	245.62
276.567	246.62
276.799	280.62
277.031	278.62
277.262	321.62
277.494	309.62
277.726	298.62
277.957	284.62
278.189	278.62
278.421	283.62
278.652	265.62
278.884	243.62
279.115	245.62
279.347	270.62
279.579	257.62
279.81	240.62
280.042	261.62
280.273	273.62
280.505	264.62
280.736	251.62
280.968	259.62
281.199	262.62
281.431	256.62
281.662	267.62
281.894	244.62
282.125	268.62
282.356	272.62
282.588	319.62
282.819	301.62
283.051	274.62
283.282	281.62
283.513	275.62
283.745	260.62
283.976	257.62
284.207	253.62
284.439	249.62
284.67	273.62
284.901	256.62
285.132	246.62
285.364	274.62
285.595	239.62
285.826	265.62
286.057	256.62
286.288	269.62
286.52	279.62
286.751	280.62
286.982	243.62
287.213	238.62
287.444	254.62
287.675	263.62
287.906	273.62
288.138	288.62
288.369	286.62
288.6	278.62
288.831	288.62
289.062	263.62
289.293	273.62
289.524	261.62
289.755	263.62
289.986	276.62
290.217	257.62
290.448	260.62
290.679	267.62
290.91	266.62
291.141	276.62
291.371	263.62
291.602	265.62
291.833	290.62
292.064	259.62
292.295	261.62
292.526	260.62
292.757	281.62
292.987	262.62
293.218	271.62
293.449	267.62
293.68	261.62
293.91	275.62
294.141	262.62
294.372	264.62
294.603	273.62
294.833	263.62
295.064	297.62
295.295	264.62
295.525	289.62
295.756	264.62
295.987	273.62
296.217	300.62
296.448	324.62
296.679	291.62
296.909	260.62
297.14	268.62
297.37	280.62
297.601	256.62
297.831	271.62
298.062	260.62
298.292	275.62
298.523	273.62
298.753	296.62
298.984	283.62
299.214	298.62
299.445	293.62
299.675	297.62
299.905	301.62
300.136	285.62
300.366	285.62
300.597	293.62
300.827	284.62
301.057	289.62
301.288	303.62
301.518	287.62
301.748	289.62
301.979	304.62
302.209	292.62
302.439	291.62
302.669	300.62
302.9	297.62
303.13	292.62
303.36	307.62
303.59	319.62
303.82	300.62
304.051	307.62
304.281	296.62
304.511	282.62
304.741	296.62
304.971	310.62
305.201	284.62
305.431	289.62
305.661	299.62
305.891	303.62
306.121	288.62
306.352	309.62
306.582	316.62
306.812	300.62
307.042	312.62
307.272	305.62
307.502	305.62
307.731	312.62
307.961	288.62
308.191	301.62
308.421	327.62
308.651	329.62
308.881	313.62
309.111	321.62
309.341	324.62
309.571	337.62
309.8	338.62
310.03	346.62
310.26	368.62
310.49	367.62
310.72	363.62
310.949	367.62
311.179	377.62
311.409	373.62
311.639	365.62
311.868	363.62
312.098	344.62
312.328	363.62
312.557	377.62
312.787	385.62
313.017	368.62
313.246	372.62
313.476	365.62
313.706	344.62
313.935	360.62
314.165	377.62
314.394	384.62
314.624	383.62
314.853	366.62
315.083	359.62
315.312	327.62
315.542	336.62
315.771	345.62
316.001	333.62
316.23	357.62
316.46	325.62
316.689	364.62
316.919	365.62
317.148	358.62
317.377	378.62
317.607	346.62
317.836	353.62
318.065	374.62
318.295	350.62
318.524	353.62
318.753	340.62
318.983	360.62
319.212	373.62
319.441	364.62
319.67	380.62
319.9	346.62
320.129	352.62
320.358	361.62
320.587	376.62
320.816	355.62
321.046	385.62
321.275	385.62
321.504	387.62
321.733	373.62
321.962	393.62
322.191	388.62
322.42	431.62
322.649	437.62
322.878	449.62
323.108	454.62
323.337	471.62
323.566	488.62
323.795	525.62
324.024	571.62
324.253	739.62
324.482	1027.62
324.71	1623.62
324.939	2400.62
325.168	2139.62
325.397	1076.62
325.626	703.62
325.855	575.62
326.084	525.62
326.313	501.62
326.542	515.62
326.77	541.62
326.999	681.62
327.228	947.62
327.457	1445.62
327.686	1820.62
327.914	1191.62
328.143	773.62
328.372	668.62
328.6	613.62
328.829	560.62
329.058	578.62
329.287	571.62
329.515	537.62
329.744	504.62
329.972	500.62
330.201	535.62
330.43	579.62
330.658	603.62
330.887	601.62
331.115	615.62
331.344	518.62
331.572	487.62
331.801	453.62
332.03	480.62
332.258	437.62
332.486	415.62
332.715	440.62
332.943	417.62
333.172	421.62
333.4	424.62
333.629	436.62
333.857	446.62
334.085	457.62
334.314	470.62
334.542	517.62
334.771	537.62
334.999	480.62
335.227	427.62
335.455	417.62
335.684	401.62
335.912	401.62
336.14	410.62
336.369	396.62
336.597	422.62
336.825	427.62
337.053	427.62
337.281	394.62
337.51	399.62
337.738	404.62
337.966	382.62
338.194	417.62
338.422	392.62
338.65	391.62
338.878	406.62
339.106	400.62
339.334	395.62
339.562	374.62
339.79	394.62
340.018	393.62
340.246	379.62
340.474	409.62
340.702	402.62
340.93	397.62
341.158	379.62
341.386	405.62
341.614	411.62
341.842	401.62
342.07	383.62
342.298	386.62
342.526	377.62
342.754	378.62
342.981	378.62
343.209	368.62
343.437	376.62
343.665	371.62
343.893	385.62
344.12	394.62
344.348	383.62
344.576	388.62
344.804	379.62
345.031	420.62
345.259	415.62
345.487	418.62
345.714	407.62
345.942	387.62
346.17	374.62
346.397	371.62
346.625	368.62
346.853	389.62
347.08	375.62
347.308	381.62
347.535	384.62
347.763	408.62
347.99	390.62
348.218	409.62
348.445	399.62
348.673	408.62
348.9	391.62
349.128	379.62
349.355	373.62
349.583	356.62
349.81	366.62
350.037	372.62
350.265	368.62
350.492	374.62
350.72	395.62
350.947	384.62
351.174	387.62
351.402	392.62
351.629	396.62
351.856	393.62
352.083	401.62
352.311	412.62
352.538	409.62
352.765	406.62
352.992	384.62
353.22	387.62
353.447	385.62
353.674	383.62
353.901	352.62
354.128	364.62
354.355	350.62
354.583	356.62
354.81	342.62
355.037	359.62
355.264	339.62
355.491	337.62
355.718	347.62
355.945	353.62
356.172	342.62
356.399	350.62
356.626	347.62
356.853	344.62
357.08	330.62
357.307	341.62
357.534	357.62
357.761	347.62
357.988	340.62
358.215	360.62
358.441	351.62
358.668	352.62
358.895	360.62
359.122	359.62
359.349	356.62
359.576	373.62
359.802	396.62
360.029	423.62
360.256	447.62
360.483	420.62
360.709	372.62
360.936	381.62
361.163	389.62
361.39	387.62
361.616	398.62
361.843	374.62
362.07	375.62
362.296	384.62
362.523	387.62
362.749	365.62
362.976	351.62
363.203	359.62
363.429	358.62
363.656	355.62
363.882	363.62
364.109	357.62
364.335	376.62
364.562	337.62
364.788	355.62
365.015	364.62
365.241	364.62
365.468	379.62
365.694	359.62
365.92	346.62
366.147	360.62
366.373	363.62
366.599	329.62
366.826	367.62
367.052	348.62
367.278	342.62
367.505	353.62
367.731	349.62
367.957	331.62
368.184	350.62
368.41	366.62
368.636	355.62
368.862	366.62
369.089	366.62
369.315	366.62
369.541	363.62
369.767	336.62
369.993	355.62
370.219	359.62
370.445	342.62
370.672	344.62
370.898	358.62
371.124	341.62
371.35	336.62
371.576	350.62
371.802	368.62
372.028	324.62
372.254	344.62
372.48	347.62
372.706	340.62
372.932	348.62
373.158	347.62
373.384	358.62
373.61	367.62
373.835	345.62
374.061	345.62
374.287	350.62
374.513	344.62
374.739	352.62
374.965	352.62
375.191	359.62
375.416	362.62
375.642	356.62
375.868	356.62
376.094	367.62
376.319	366.62
376.545	348.62
376.771	355.62
376.997	348.62
377.222	336.62
377.448	357.62
377.674	351.62
377.899	344.62
378.125	338.62
378.35	352.62
378.576	337.62
378.802	333.62
379.027	331.62
379.253	356.62
379.478	331.62
379.704	355.62
379.929	325.62
380.155	339.62
380.38	341.62
380.606	334.62
380.831	332.62
381.057	361.62
381.282	337.62
381.507	333.62
381.733	354.62
381.958	351.62
382.184	345.62
382.409	352.62
382.634	349.62
382.86	345.62
383.085	328.62
383.31	327.62
383.535	362.62
383.761	347.62
383.986	351.62
384.211	336.62
384.436	334.62
384.662	356.62
384.887	368.62
385.112	345.62
385.337	352.62
385.562	366.62
385.787	355.62
386.013	384.62
386.238	375.62
386.463	357.62
386.688	371.62
386.913	364.62
387.138	356.62
387.363	379.62
387.588	344.62
387.813	371.62
388.038	361.62
388.263	356.62
388.488	352.62
388.713	367.62
388.938	361.62
389.163	371.62
389.387	374.62
389.612	365.62
389.837	361.62
390.062	364.62
390.287	350.62
390.512	356.62
390.736	361.62
390.961	374.62
391.186	379.62
391.411	378.62
391.636	366.62
391.86	376.62
392.085	376.62
392.31	360.62
392.534	348.62
392.759	373.62
392.984	371.62
393.208	379.62
393.433	393.62
393.658	389.62
393.882	374.62
394.107	346.62
394.331	357.62
394.556	378.62
394.78	352.62
395.005	344.62
395.229	354.62
395.454	373.62
395.678	372.62
395.903	396.62
396.127	403.62
396.352	415.62
396.576	400.62
396.801	375.62
397.025	389.62
397.249	401.62
397.474	388.62
397.698	376.62
397.922	396.62
398.147	400.62
398.371	428.62
398.595	412.62
398.82	394.62
399.044	398.62
399.268	420.62
399.492	421.62
399.717	457.62
399.941	458.62
400.165	484.62
400.389	523.62
400.613	469.62
400.837	445.62
401.062	408.62
401.286	399.62
401.51	414.62
401.734	410.62
401.958	409.62
402.182	450.62
402.406	427.62
402.63	446.62
402.854	431.62
403.078	409.62
403.302	432.62
403.526	425.62
403.75	420.62
403.974	451.62
404.198	421.62
404.422	421.62
404.645	444.62
404.869	447.62
405.093	464.62
405.317	503.62
405.541	557.62
405.765	488.62
405.988	440.62
406.212	478.62
406.436	494.62
406.66	485.62
406.883	471.62
407.107	471.62
407.331	528.62
407.555	587.62
407.778	583.62
408.002	549.62
408.226	491.62
408.449	472.62
408.673	488.62
408.896	516.62
409.12	533.62
409.344	524.62
409.567	445.62
409.791	456.62
410.014	445.62
410.238	431.62
410.461	442.62
410.685	441.62
410.908	445.62
411.132	481.62
411.355	511.62
411.578	484.62
411.802	469.62
412.025	462.62
412.249	428.62
412.472	462.62
412.695	478.62
412.919	476.62
413.142	444.62
413.365	446.62
413.589	431.62
413.812	422.62
414.035	401.62
414.258	414.62
414.482	390.62
414.705	413.62
414.928	411.62
415.151	409.62
415.374	398.62
415.597	419.62
415.821	411.62
416.044	413.62
416.267	401.62
416.49	428.62
416.713	400.62
416.936	401.62
417.159	387.62
417.382	416.62
417.605	419.62
417.828	425.62
418.051	436.62
418.274	428.62
418.497	408.62
418.72	416.62
418.943	387.62
419.166	415.62
419.389	430.62
419.611	445.62
419.834	443.62
420.057	439.62
420.28	449.62
420.503	446.62
420.726	429.62
420.948	455.62
421.171	489.62
421.394	520.62
421.617	449.62
421.839	447.62
422.062	430.62
422.285	451.62
422.507	507.62
422.73	568.62
422.953	567.62
423.175	489.62
423.398	476.62
423.621	453.62
423.843	475.62
424.066	477.62
424.288	459.62
424.511	489.62
424.733	554.62
424.956	610.62
425.178	590.62
425.401	589.62
425.623	599.62
425.846	519.62
426.068	490.62
426.291	485.62
426.513	484.62
426.735	476.62
426.958	516.62
427.18	611.62
427.402	737.62
427.625	819.62
427.847	720.62
428.069	617.62
428.292	525.62
428.514	487.62
428.736	464.62
428.958	455.62
429.181	444.62
429.403	455.62
429.625	443.62
429.847	502.62
430.069	545.62
430.292	572.62
430.514	475.62
430.736	465.62
430.958	412.62
431.18	431.62
431.402	411.62
431.624	408.62
431.846	433.62
432.068	405.62
432.29	424.62
432.512	401.62
432.734	438.62
432.956	411.62
433.178	421.62
433.4	425.62
433.622	425.62
433.844	411.62
434.066	414.62
434.287	411.62
434.509	398.62
434.731	427.62
434.953	396.62
435.175	435.62
435.397	475.62
435.618	481.62
435.84	530.62
436.062	593.62
436.284	693.62
436.505	565.62
436.727	507.62
436.949	477.62
437.17	459.62
437.392	426.62
437.614	463.62
437.835	521.62
438.057	592.62
438.278	699.62
438.5	676.62
438.721	757.62
438.943	713.62
439.165	555.62
439.386	508.62
439.608	513.62
439.829	495.62
440.05	520.62
440.272	608.62
440.493	564.62
440.715	483.62
440.936	463.62
441.158	449.62
441.379	455.62
441.6	462.62
441.822	493.62
442.043	520.62
442.264	586.62
442.486	654.62
442.707	559.62
442.928	501.62
443.149	519.62
443.371	535.62
443.592	581.62
443.813	645.62
444.034	708.62
444.255	590.62
444.476	504.62
444.698	489.62
444.919	465.62
445.14	614.62
445.361	554.62
445.582	530.62
445.803	585.62
446.024	721.62
446.245	697.62
446.466	632.62
446.687	523.62
446.908	522.62
447.129	479.62
447.35	479.62
447.571	444.62
447.792	462.62
448.013	450.62
448.234	504.62
448.455	537.62
448.675	635.62
448.896	745.62
449.117	618.62
449.338	607.62
449.559	665.62
449.779	774.62
450	628.62
450.221	502.62
450.442	462.62
450.662	465.62
450.883	473.62
451.104	482.62
451.324	459.62
451.545	424.62
451.766	416.62
451.986	407.62
452.207	389.62
452.428	409.62
452.648	392.62
452.869	407.62
453.089	416.62
453.31	428.62
453.53	427.62
453.751	390.62
453.971	403.62
454.192	416.62
454.412	431.62
454.633	399.62
454.853	397.62
455.073	394.62
455.294	431.62
455.514	476.62
455.734	505.62
455.955	449.62
456.175	381.62
456.395	407.62
456.616	377.62
456.836	381.62
457.056	372.62
457.276	368.62
457.497	373.62
457.717	368.62
457.937	387.62
458.157	401.62
458.377	391.62
458.598	401.62
458.818	476.62
459.038	561.62
459.258	576.62
459.478	475.62
459.698	433.62
459.918	406.62
460.138	399.62
460.358	410.62
460.578	416.62
460.798	406.62
461.018	381.62
461.238	397.62
461.458	412.62
461.678	423.62
461.898	399.62
462.118	419.62
462.338	394.62
462.558	413.62
462.777	409.62
462.997	403.62
463.217	430.62
463.437	437.62
463.657	426.62
463.876	415.62
464.096	443.62
464.316	436.62
464.536	440.62
464.755	445.62
464.975	442.62
465.195	499.62
465.414	594.62
465.634	485.62
465.854	470.62
466.073	437.62
466.293	424.62
466.512	418.62
466.732	412.62
466.951	407.62
467.171	385.62
467.391	399.62
467.61	400.62
467.829	426.62
468.049	421.62
468.268	421.62
468.488	402.62
468.707	403.62
468.927	393.62
469.146	387.62
469.365	387.62
469.585	380.62
469.804	398.62
470.023	428.62
470.243	404.62
470.462	431.62
470.681	466.62
470.901	453.62
471.12	410.62
471.339	413.62
471.558	411.62
471.777	418.62
471.997	404.62
472.216	416.62
472.435	465.62
472.654	464.62
472.873	410.62
473.092	413.62
473.311	426.62
473.53	419.62
473.749	435.62
473.968	451.62
474.187	565.62
474.406	579.62
474.625	488.62
474.844	419.62
475.063	407.62
475.282	409.62
475.501	428.62
475.72	425.62
475.939	414.62
476.158	432.62
476.377	436.62
476.596	443.62
476.814	441.62
477.033	431.62
477.252	431.62
477.471	438.62
477.69	439.62
477.908	432.62
478.127	421.62
478.346	444.62
478.564	460.62
478.783	425.62
479.002	453.62
479.22	448.62
479.439	473.62
479.658	489.62
479.876	490.62
480.095	492.62
480.313	533.62
480.532	536.62
480.751	483.62
480.969	501.62
481.188	601.62
481.406	636.62
481.624	555.62
481.843	502.62
482.061	509.62
482.28	474.62
482.498	503.62
482.717	480.62
482.935	476.62
483.153	489.62
483.372	485.62
483.59	489.62
483.808	477.62
484.027	480.62
484.245	479.62
484.463	485.62
484.681	501.62
484.9	501.62
485.118	495.62
485.336	483.62
485.554	474.62
485.772	503.62
485.99	493.62
486.209	518.62
486.427	503.62
486.645	509.62
486.863	517.62
487.081	525.62
487.299	548.62
487.517	526.62
487.735	510.62
487.953	508.62
488.171	507.62
488.389	503.62
488.607	523.62
488.825	501.62
489.043	544.62
489.261	518.62
489.479	528.62
489.696	552.62
489.914	529.62
490.132	541.62
490.35	569.62
490.568	544.62
490.786	553.62
491.003	547.62
491.221	585.62
491.439	582.62
491.657	579.62
491.874	568.62
492.092	587.62
492.31	605.62
492.527	604.62
492.745	614.62
492.963	589.62
493.18	603.62
493.398	621.62
493.615	619.62
493.833	620.62
494.05	608.62
494.268	615.62
494.485	613.62
494.703	580.62
494.92	629.62
495.138	629.62
495.355	602.62
495.573	627.62
495.79	639.62
496.008	604.62
496.225	622.62
496.442	618.62
496.66	616.62
496.877	602.62
497.094	605.62
497.312	633.62
497.529	623.62
497.746	640.62
497.963	657.62
498.181	655.62
498.398	646.62
498.615	653.62
498.832	685.62
499.049	666.62
499.267	687.62
499.484	679.62
499.701	708.62
499.918	725.62
500.135	760.62
500.352	764.62
500.569	788.62
500.786	781.62
501.003	775.62
501.22	780.62
501.437	740.62
501.654	739.62
501.871	736.62
502.088	732.62
502.305	729.62
502.522	666.62
502.739	661.62
502.956	659.62
503.172	663.62
503.389	640.62
503.606	641.62
503.823	644.62
504.04	631.62
504.256	627.62
504.473	619.62
504.69	626.62
504.907	619.62
505.123	616.62
505.34	595.62
505.557	592.62
505.773	607.62
505.99	617.62
506.207	583.62
506.423	612.62
506.64	601.62
506.856	595.62
507.073	567.62
507.289	591.62
507.506	601.62
507.722	613.62
507.939	635.62
508.155	595.62
508.372	601.62
508.588	569.62
508.805	568.62
509.021	582.62
509.238	607.62
509.454	592.62
509.67	594.62
509.887	603.62
510.103	582.62
510.319	600.62
510.536	696.62
510.752	1238.62
510.968	1011.62
511.184	629.62
511.401	588.62
511.617	555.62
511.833	551.62
512.049	552.62
512.265	541.62
512.481	556.62
512.698	554.62
512.914	551.62
513.13	543.62
513.346	547.62
513.562	532.62
513.778	564.62
513.994	553.62
514.21	598.62
514.426	590.62
514.642	628.62
514.858	694.62
515.074	717.62
515.29	878.62
515.506	1382.62
515.721	1102.62
515.937	726.62
516.153	634.62
516.369	605.62
516.585	585.62
516.801	570.62
517.016	571.62
517.232	556.62
517.448	561.62
517.664	579.62
517.879	559.62
518.095	547.62
518.311	555.62
518.527	549.62
518.742	546.62
518.958	533.62
519.173	550.62
519.389	531.62
519.605	550.62
519.82	584.62
520.036	592.62
520.251	620.62
520.467	640.62
520.682	608.62
520.898	632.62
521.113	654.62
521.329	719.62
521.544	806.62
521.76	1060.62
521.975	1812.62
522.19	1770.62
522.406	953.62
522.621	669.62
522.836	614.62
523.052	583.62
523.267	552.62
523.482	523.62
523.698	508.62
523.913	508.62
524.128	533.62
524.343	528.62
524.559	509.62
524.774	491.62
524.989	496.62
525.204	488.62
525.419	500.62
525.634	480.62
525.849	469.62
526.064	462.62
526.28	458.62
526.495	461.62
526.71	474.62
526.925	463.62
527.14	427.62
527.355	453.62
527.57	431.62
527.785	436.62
527.999	457.62
528.214	443.62
528.429	456.62
528.644	430.62
528.859	429.62
529.074	472.62
529.289	480.62
529.503	558.62
529.718	550.62
529.933	483.62
530.148	463.62
530.363	445.62
530.577	438.62
530.792	443.62
531.007	424.62
531.221	440.62
531.436	435.62
531.651	421.62
531.865	422.62
532.08	423.62
532.295	439.62
532.509	423.62
532.724	409.62
532.938	439.62
533.153	424.62
533.367	440.62
533.582	427.62
533.796	417.62
534.011	420.62
534.225	427.62
534.44	426.62
534.654	416.62
534.868	408.62
535.083	396.62
535.297	437.62
535.511	428.62
535.726	431.62
535.94	424.62
536.154	425.62
536.369	425.62
536.583	387.62
536.797	408.62
537.011	393.62
537.225	391.62
537.44	411.62
537.654	421.62
537.868	382.62
538.082	405.62
538.296	403.62
538.51	420.62
538.724	428.62
538.938	416.62
539.153	413.62
539.367	433.62
539.581	409.62
539.795	404.62
540.009	409.62
540.222	391.62
540.436	402.62
540.65	384.62
540.864	407.62
541.078	418.62
541.292	432.62
541.506	411.62
541.72	405.62
541.934	390.62
542.147	407.62
542.361	400.62
542.575	406.62
542.789	381.62
543.002	414.62
543.216	412.62
543.43	408.62
543.644	410.62
543.857	410.62
544.071	409.62
544.285	414.62
544.498	417.62
544.712	410.62
544.925	406.62
545.139	400.62
545.352	377.62
545.566	402.62
545.779	414.62
545.993	412.62
546.206	397.62
546.42	414.62
546.633	384.62
546.847	381.62
547.06	376.62
547.274	388.62
547.487	392.62
547.7	373.62
547.914	385.62
548.127	374.62
548.34	372.62
548.554	379.62
548.767	391.62
548.98	385.62
549.193	394.62
549.407	387.62
549.62	386.62
549.833	384.62
550.046	383.62
550.259	376.62
550.473	385.62
550.686	376.62
550.899	358.62
551.112	381.62
551.325	356.62
551.538	393.62
551.751	371.62
551.964	364.62
552.177	369.62
552.39	365.62
552.603	368.62
552.816	361.62
553.029	355.62
553.242	371.62
553.455	389.62
553.667	376.62
553.88	389.62
554.093	396.62
554.306	392.62
554.519	406.62
554.732	387.62
554.944	382.62
555.157	364.62
555.37	373.62
555.583	371.62
555.795	372.62
556.008	350.62
556.221	373.62
556.433	339.62
556.646	355.62
556.859	351.62
557.071	363.62
557.284	364.62
557.496	342.62
557.709	356.62
557.921	358.62
558.134	360.62
558.346	353.62
558.559	351.62
558.771	333.62
558.984	352.62
559.196	330.62
559.409	321.62
559.621	331.62
559.833	358.62
560.046	345.62
560.258	342.62
560.47	348.62
560.683	349.62
560.895	329.62
561.107	343.62
561.32	340.62
561.532	328.62
561.744	345.62
561.956	354.62
562.168	353.62
562.381	342.62
562.593	348.62
562.805	342.62
563.017	342.62
563.229	352.62
563.441	342.62
563.653	349.62
563.865	319.62
564.077	351.62
564.289	358.62
564.501	356.62
564.713	362.62
564.925	374.62
565.137	377.62
565.349	363.62
565.561	364.62
565.773	387.62
565.985	345.62
566.197	381.62
566.408	375.62
566.62	385.62
566.832	373.62
567.044	383.62
567.255	377.62
567.467	386.62
567.679	405.62
567.891	379.62
568.102	378.62
568.314	389.62
568.526	368.62
568.737	378.62
568.949	360.62
569.161	353.62
569.372	337.62
569.584	347.62
569.795	356.62
570.007	355.62
570.218	397.62
570.43	367.62
570.641	341.62
570.853	362.62
571.064	331.62
571.276	335.62
571.487	325.62
571.698	319.62
571.91	311.62
572.121	305.62
572.333	307.62
572.544	306.62
572.755	300.62
572.966	309.62
573.178	303.62
573.389	318.62
573.6	300.62
573.811	297.62
574.023	301.62
574.234	310.62
574.445	303.62
574.656	285.62
574.867	313.62
575.078	295.62
575.289	286.62
575.501	301.62
575.712	273.62
575.923	292.62
576.134	306.62
576.345	279.62
576.556	312.62
576.767	303.62
576.978	294.62
577.188	293.62
577.399	273.62
577.61	281.62
577.821	287.62
578.032	294.62
578.243	324.62
578.454	615.62
578.665	405.62
578.875	325.62
579.086	312.62
579.297	283.62
579.508	278.62
579.718	277.62
579.929	287.62
580.14	282.62
580.35	284.62
580.561	269.62
580.772	285.62
580.982	285.62
581.193	266.62
581.403	291.62
581.614	267.62
581.825	277.62
582.035	273.62
582.246	259.62
582.456	256.62
582.667	272.62
582.877	276.62
583.087	279.62
583.298	273.62
583.508	286.62
583.719	283.62
583.929	283.62
584.139	273.62
584.35	273.62
584.56	264.62
584.77	266.62
584.981	279.62
585.191	260.62
585.401	269.62
585.611	277.62
585.821	287.62
586.032	273.62
586.242	289.62
586.452	279.62
586.662	267.62
586.872	273.62
587.082	278.62
587.292	279.62
587.502	267.62
587.713	253.62
587.923	262.62
588.133	261.62
588.343	271.62
588.553	274.62
588.762	279.62
588.972	262.62
589.182	278.62
589.392	263.62
589.602	278.62
589.812	265.62
590.022	269.62
590.232	253.62
590.441	263.62
590.651	266.62
590.861	255.62
591.071	254.62
591.281	277.62
591.49	257.62
591.7	267.62
591.91	281.62
592.119	247.62
592.329	266.62
592.539	261.62
592.748	271.62
592.958	250.62
593.167	265.62
593.377	265.62
593.587	287.62
593.796	263.62
594.006	265.62
594.215	258.62
594.424	236.62
594.634	281.62
594.843	254.62
595.053	251.62
595.262	250.62
595.472	264.62
595.681	270.62
595.89	256.62
596.1	248.62
596.309	246.62
596.518	265.62
596.727	247.62
596.937	242.62
597.146	235.62
597.355	243.62
597.564	251.62
597.774	255.62
597.983	244.62
598.192	246.62
598.401	237.62
598.61	230.62
598.819	228.62
599.028	245.62
599.237	227.62
599.446	240.62
599.655	235.62
599.864	233.62
600.073	240.62
600.282	244.62
600.491	242.62
600.7	236.62
600.909	235.62
601.118	231.62
601.327	223.62
601.536	229.62
601.745	214.62
601.953	232.62
602.162	227.62
602.371	238.62
602.58	232.62
602.789	239.62
602.997	229.62
603.206	224.62
603.415	232.62
603.623	231.62
603.832	211.62
604.041	216.62
604.249	221.62
604.458	216.62
604.666	231.62
604.875	229.62
605.084	230.62
605.292	229.62
605.501	237.62
605.709	221.62
605.918	227.62
606.126	247.62
606.334	232.62
606.543	223.62
606.751	223.62
606.96	232.62
607.168	220.62
607.376	223.62
607.585	216.62
607.793	216.62
608.001	217.62
608.21	222.62
608.418	214.62
608.626	228.62
608.834	231.62
609.043	227.62
609.251	240.62
609.459	217.62
609.667	233.62
609.875	214.62
610.083	211.62
610.291	222.62
610.499	246.62
610.707	210.62
610.916	207.62
611.124	218.62
611.332	227.62
611.54	226.62
611.748	214.62
611.955	219.62
612.163	224.62
612.371	215.62
612.579	212.62
612.787	207.62
612.995	207.62
613.203	227.62
613.411	221.62
613.618	223.62
613.826	221.62
614.034	219.62
614.242	226.62
614.449	205.62
614.657	233.62
614.865	208.62
615.072	204.62
615.28	204.62
615.488	223.62
615.695	212.62
615.903	222.62
616.111	213.62
616.318	218.62
616.526	209.62
616.733	213.62
616.941	221.62
617.148	216.62
617.356	207.62
617.563	208.62
617.771	217.62
617.978	221.62
618.185	203.62
618.393	207.62
618.6	199.62
618.807	197.62
619.015	222.62
619.222	194.62
619.429	216.62
619.637	213.62
619.844	206.62
620.051	208.62
620.258	200.62
620.466	198.62
620.673	203.62
620.88	204.62
621.087	210.62
621.294	198.62
621.501	194.62
621.708	191.62
621.915	208.62
622.122	204.62
622.329	215.62
622.536	191.62
622.743	199.62
622.95	218.62
623.157	199.62
623.364	196.62
623.571	202.62
623.778	204.62
623.985	191.62
624.192	197.62
624.399	195.62
624.606	193.62
624.812	174.62
625.019	185.62
625.226	185.62
625.433	186.62
625.639	191.62
625.846	185.62
626.053	190.62
626.259	191.62
626.466	203.62
626.673	172.62
626.879	171.62
627.086	184.62
627.293	184.62
627.499	202.62
627.706	179.62
627.912	186.62
628.119	188.62
628.325	195.62
628.532	187.62
628.738	181.62
628.945	181.62
629.151	191.62
629.357	189.62
629.564	165.62
629.77	201.62
629.976	187.62
630.183	167.62
630.389	173.62
630.595	187.62
630.802	193.62
631.008	191.62
631.214	180.62
631.42	159.62
631.627	186.62
631.833	179.62
632.039	180.62
632.245	166.62
632.451	187.62
632.657	167.62
632.863	180.62
633.069	169.62
633.275	165.62
633.481	174.62
633.688	173.62
633.893	174.62
634.099	175.62
634.305	153.62
634.511	165.62
634.717	169.62
634.923	176.62
635.129	168.62
635.335	160.62
635.541	176.62
635.747	163.62
635.952	174.62
636.158	169.62
636.364	170.62
636.57	171.62
636.775	177.62
636.981	174.62
637.187	170.62
637.392	174.62
637.598	175.62
637.804	155.62
638.009	170.62
638.215	183.62
638.421	171.62
638.626	168.62
638.832	161.62
639.037	170.62
639.243	145.62
639.448	173.62
639.654	169.62
639.859	159.62
640.065	167.62
640.27	169.62
640.475	165.62
640.681	165.62
640.886	154.62
641.091	152.62
641.297	165.62
641.502	164.62
641.707	169.62
641.913	162.62
642.118	169.62
642.323	157.62
642.528	151.62
642.733	155.62
642.939	161.62
643.144	166.62
643.349	159.62
643.554	164.62
643.759	151.62
643.964	151.62
644.169	152.62
644.374	146.62
644.579	160.62
644.784	160.62
644.989	158.62
645.194	139.62
645.399	164.62
645.604	146.62
645.809	154.62
646.014	150.62
646.219	151.62
646.423	156.62
646.628	145.62
646.833	142.62
647.038	158.62
647.243	146.62
647.447	151.62
647.652	159.62
647.857	155.62
648.062	133.62
648.266	153.62
648.471	169.62
648.676	156.62
648.88	164.62
649.085	144.62
649.289	167.62
649.494	167.62
649.698	184.62
649.903	169.62
650.107	161.62
650.312	155.62
650.516	150.62
650.721	151.62
650.925	134.62
651.13	149.62
651.334	137.62
651.539	143.62
651.743	133.62
651.947	132.62
652.152	134.62
652.356	129.62
652.56	149.62
652.764	137.62
652.969	151.62
653.173	131.62
653.377	118.62
653.581	134.62
653.785	144.62
653.99	123.62
654.194	137.62
654.398	143.62
654.602	141.62
654.806	135.62
655.01	141.62
655.214	148.62
655.418	116.62
655.622	124.62
655.826	132.62
656.03	118.62
656.234	126.62
656.438	125.62
656.642	131.62
656.846	122.62
657.049	125.62
657.253	125.62
657.457	136.62
657.661	101.62
657.865	111.62
658.068	111.62
658.272	104.62
658.476	108.62
658.68	106.62
658.883	86.62
659.087	108.62
659.291	106.62
659.494	89.62
659.698	105.62
659.901	100.62
660.105	83.62
660.309	100.62
660.512	104.62
660.716	97.62
660.919	93.62
661.123	87.62
661.326	86.62
661.53	86.62
661.733	93.62
661.936	90.62
662.14	83.62
662.343	95.62
662.546	82.62
662.75	90.62
662.953	89.62
663.156	93.62
663.36	87.62
663.563	84.62
663.766	86.62
663.969	95.62
664.173	92.62
664.376	84.62
664.579	92.62
664.782	82.62
664.985	87.62
665.188	89.62
665.391	77.62
665.594	83.62
665.797	75.62
666	76.62
666.203	82.62
666.406	80.62
666.609	94.62
666.812	69.62
667.015	93.62
667.218	86.62
667.421	84.62
667.624	83.62
667.827	81.62
668.03	82.62
668.232	75.62
668.435	89.62
668.638	87.62
668.841	79.62
669.043	74.62
669.246	84.62
669.449	96.62
669.651	95.62
669.854	73.62
670.057	91.62
670.259	78.62
670.462	79.62
670.665	92.62
670.867	75.62
671.07	72.62
671.272	78.62
671.475	98.62
671.677	89.62
671.88	93.62
672.082	94.62
672.284	76.62
672.487	90.62
672.689	71.62
672.892	79.62
