Data from 1972.PennyLincolnUp.Lamp.En5.5.200Scan.071719.P1._HRD10591_15-29-02-844.txt Node
Date: Thu Jul 18 15:29:02 EDT 2019
User: cochatt
Spectrometer: HR+D1059
Trigger mode: 1
Integration Time (sec): 1.000000E-1
Scans to average: 1
Electric dark correction enabled: true
Nonlinearity correction enabled: false
Boxcar width: 0
XAxis mode: Wavelengths
Number of Pixels in Spectrum: 2048
>>>>>Begin Spectral Data<<<<<
223.165	0.12
223.4	0.12
223.635	0.12
223.869	-9.88
224.104	-34.88
224.338	-22.88
224.573	-16.88
224.808	-22.88
225.042	-13.88
225.277	1.12
225.511	-5.88
225.746	5.12
225.98	4.12
226.215	21.12
226.449	24.12
226.683	20.12
226.918	24.12
227.152	27.12
227.387	36.12
227.621	36.12
227.856	54.12
228.09	57.12
228.324	44.12
228.559	54.12
228.793	72.12
229.027	104.12
229.262	125.12
229.496	124.12
229.73	145.12
229.964	164.12
230.199	138.12
230.433	126.12
230.667	131.12
230.901	130.12
231.136	130.12
231.37	128.12
231.604	128.12
231.838	113.12
232.072	126.12
232.306	112.12
232.541	137.12
232.775	120.12
233.009	112.12
233.243	117.12
233.477	121.12
233.711	119.12
233.945	119.12
234.179	109.12
234.413	120.12
234.647	140.12
234.881	122.12
235.115	111.12
235.349	132.12
235.583	110.12
235.817	118.12
236.051	128.12
236.285	141.12
236.519	136.12
236.753	121.12
236.987	145.12
237.221	204.12
237.455	262.12
237.689	204.12
237.922	158.12
238.156	145.12
238.39	139.12
238.624	132.12
238.858	117.12
239.091	113.12
239.325	122.12
239.559	128.12
239.793	141.12
240.027	162.12
240.26	150.12
240.494	157.12
240.728	160.12
240.961	156.12
241.195	166.12
241.429	145.12
241.662	118.12
241.896	138.12
242.13	138.12
242.363	140.12
242.597	142.12
242.83	145.12
243.064	136.12
243.298	148.12
243.531	138.12
243.765	147.12
243.998	151.12
244.232	116.12
244.465	163.12
244.699	146.12
244.932	140.12
245.166	152.12
245.399	138.12
245.633	142.12
245.866	138.12
246.099	146.12
246.333	152.12
246.566	163.12
246.8	154.12
247.033	145.12
247.266	175.12
247.5	201.12
247.733	183.12
247.966	192.12
248.2	170.12
248.433	178.12
248.666	171.12
248.899	209.12
249.133	201.12
249.366	217.12
249.599	206.12
249.832	196.12
250.066	208.12
250.299	195.12
250.532	200.12
250.765	208.12
250.998	223.12
251.231	241.12
251.465	217.12
251.698	204.12
251.931	219.12
252.164	199.12
252.397	184.12
252.63	208.12
252.863	208.12
253.096	227.12
253.329	239.12
253.562	255.12
253.795	247.12
254.028	233.12
254.261	220.12
254.494	239.12
254.727	285.12
254.96	311.12
255.193	281.12
255.426	278.12
255.659	257.12
255.892	262.12
256.124	249.12
256.357	254.12
256.59	235.12
256.823	225.12
257.056	254.12
257.289	218.12
257.521	241.12
257.754	208.12
257.987	212.12
258.22	221.12
258.452	207.12
258.685	221.12
258.918	220.12
259.151	220.12
259.383	220.12
259.616	250.12
259.849	231.12
260.081	249.12
260.314	266.12
260.547	290.12
260.779	272.12
261.012	263.12
261.244	248.12
261.477	233.12
261.71	243.12
261.942	239.12
262.175	248.12
262.407	225.12
262.64	234.12
262.872	235.12
263.105	232.12
263.337	215.12
263.57	222.12
263.802	227.12
264.035	205.12
264.267	222.12
264.499	217.12
264.732	236.12
264.964	229.12
265.197	208.12
265.429	230.12
265.661	232.12
265.894	224.12
266.126	232.12
266.358	224.12
266.591	231.12
266.823	239.12
267.055	216.12
267.287	248.12
267.52	233.12
267.752	225.12
267.984	218.12
268.216	246.12
268.448	244.12
268.681	231.12
268.913	214.12
269.145	268.12
269.377	297.12
269.609	266.12
269.841	288.12
270.073	287.12
270.306	315.12
270.538	352.12
270.77	323.12
271.002	325.12
271.234	301.12
271.466	312.12
271.698	318.12
271.93	350.12
272.162	336.12
272.394	323.12
272.626	309.12
272.858	309.12
273.09	295.12
273.322	295.12
273.553	280.12
273.785	270.12
274.017	274.12
274.249	290.12
274.481	285.12
274.713	281.12
274.945	280.12
275.176	279.12
275.408	280.12
275.64	265.12
275.872	284.12
276.104	286.12
276.335	267.12
276.567	299.12
276.799	284.12
277.031	312.12
277.262	351.12
277.494	341.12
277.726	314.12
277.957	315.12
278.189	298.12
278.421	294.12
278.652	291.12
278.884	286.12
279.115	278.12
279.347	274.12
279.579	278.12
279.81	284.12
280.042	265.12
280.273	274.12
280.505	255.12
280.736	260.12
280.968	255.12
281.199	284.12
281.431	259.12
281.662	268.12
281.894	269.12
282.125	273.12
282.356	304.12
282.588	308.12
282.819	317.12
283.051	274.12
283.282	275.12
283.513	268.12
283.745	262.12
283.976	285.12
284.207	268.12
284.439	263.12
284.67	282.12
284.901	277.12
285.132	262.12
285.364	269.12
285.595	266.12
285.826	289.12
286.057	273.12
286.288	286.12
286.52	266.12
286.751	253.12
286.982	285.12
287.213	277.12
287.444	272.12
287.675	286.12
287.906	280.12
288.138	314.12
288.369	306.12
288.6	305.12
288.831	303.12
289.062	309.12
289.293	282.12
289.524	278.12
289.755	275.12
289.986	290.12
290.217	274.12
290.448	273.12
290.679	269.12
290.91	277.12
291.141	273.12
291.371	276.12
291.602	282.12
291.833	284.12
292.064	264.12
292.295	242.12
292.526	300.12
292.757	310.12
292.987	272.12
293.218	295.12
293.449	282.12
293.68	274.12
293.91	274.12
294.141	279.12
294.372	278.12
294.603	279.12
294.833	257.12
295.064	270.12
295.295	305.12
295.525	291.12
295.756	309.12
295.987	311.12
296.217	333.12
296.448	338.12
296.679	320.12
296.909	295.12
297.14	280.12
297.37	288.12
297.601	290.12
297.831	284.12
298.062	286.12
298.292	299.12
298.523	316.12
298.753	293.12
298.984	302.12
299.214	314.12
299.445	310.12
299.675	293.12
299.905	329.12
300.136	306.12
300.366	316.12
300.597	290.12
300.827	317.12
301.057	316.12
301.288	317.12
301.518	303.12
301.748	310.12
301.979	321.12
302.209	316.12
302.439	326.12
302.669	316.12
302.9	319.12
303.13	309.12
303.36	324.12
303.59	316.12
303.82	333.12
304.051	341.12
304.281	323.12
304.511	304.12
304.741	313.12
304.971	302.12
305.201	310.12
305.431	304.12
305.661	326.12
305.891	302.12
306.121	310.12
306.352	329.12
306.582	331.12
306.812	328.12
307.042	315.12
307.272	320.12
307.502	304.12
307.731	319.12
307.961	303.12
308.191	332.12
308.421	325.12
308.651	335.12
308.881	331.12
309.111	349.12
309.341	336.12
309.571	349.12
309.8	360.12
310.03	372.12
310.26	384.12
310.49	391.12
310.72	394.12
310.949	416.12
311.179	411.12
311.409	393.12
311.639	392.12
311.868	380.12
312.098	368.12
312.328	396.12
312.557	426.12
312.787	430.12
313.017	412.12
313.246	401.12
313.476	376.12
313.706	360.12
313.935	401.12
314.165	399.12
314.394	418.12
314.624	408.12
314.853	396.12
315.083	403.12
315.312	376.12
315.542	363.12
315.771	376.12
316.001	372.12
316.23	363.12
316.46	362.12
316.689	372.12
316.919	364.12
317.148	382.12
317.377	406.12
317.607	383.12
317.836	390.12
318.065	364.12
318.295	384.12
318.524	378.12
318.753	349.12
318.983	376.12
319.212	399.12
319.441	397.12
319.67	387.12
319.9	396.12
320.129	381.12
320.358	393.12
320.587	396.12
320.816	391.12
321.046	433.12
321.275	414.12
321.504	399.12
321.733	416.12
321.962	433.12
322.191	441.12
322.42	468.12
322.649	473.12
322.878	476.12
323.108	488.12
323.337	524.12
323.566	550.12
323.795	600.12
324.024	656.12
324.253	817.12
324.482	1199.12
324.71	1888.12
324.939	2778.12
325.168	2454.12
325.397	1212.12
325.626	787.12
325.855	633.12
326.084	590.12
326.313	567.12
326.542	577.12
326.77	624.12
326.999	748.12
327.228	1068.12
327.457	1684.12
327.686	2105.12
327.914	1399.12
328.143	889.12
328.372	732.12
328.6	702.12
328.829	641.12
329.058	667.12
329.287	654.12
329.515	631.12
329.744	567.12
329.972	565.12
330.201	583.12
330.43	664.12
330.658	694.12
330.887	712.12
331.115	686.12
331.344	574.12
331.572	532.12
331.801	529.12
332.03	510.12
332.258	481.12
332.486	485.12
332.715	446.12
332.943	440.12
333.172	447.12
333.4	439.12
333.629	472.12
333.857	471.12
334.085	489.12
334.314	534.12
334.542	574.12
334.771	599.12
334.999	524.12
335.227	472.12
335.455	464.12
335.684	436.12
335.912	444.12
336.14	441.12
336.369	431.12
336.597	428.12
336.825	458.12
337.053	433.12
337.281	428.12
337.51	423.12
337.738	442.12
337.966	426.12
338.194	436.12
338.422	433.12
338.65	428.12
338.878	420.12
339.106	420.12
339.334	430.12
339.562	414.12
339.79	424.12
340.018	403.12
340.246	428.12
340.474	430.12
340.702	440.12
340.93	421.12
341.158	392.12
341.386	418.12
341.614	420.12
341.842	419.12
342.07	412.12
342.298	414.12
342.526	407.12
342.754	408.12
342.981	395.12
343.209	401.12
343.437	405.12
343.665	401.12
343.893	399.12
344.12	406.12
344.348	415.12
344.576	415.12
344.804	415.12
345.031	423.12
345.259	445.12
345.487	412.12
345.714	422.12
345.942	436.12
346.17	406.12
346.397	405.12
346.625	420.12
346.853	401.12
347.08	421.12
347.308	415.12
347.535	421.12
347.763	433.12
347.99	428.12
348.218	441.12
348.445	430.12
348.673	440.12
348.9	426.12
349.128	406.12
349.355	395.12
349.583	381.12
349.81	397.12
350.037	389.12
350.265	390.12
350.492	405.12
350.72	390.12
350.947	419.12
351.174	414.12
351.402	423.12
351.629	421.12
351.856	423.12
352.083	431.12
352.311	424.12
352.538	439.12
352.765	439.12
352.992	422.12
353.22	408.12
353.447	386.12
353.674	401.12
353.901	394.12
354.128	396.12
354.355	385.12
354.583	378.12
354.81	378.12
355.037	377.12
355.264	367.12
355.491	357.12
355.718	365.12
355.945	351.12
356.172	354.12
356.399	372.12
356.626	360.12
356.853	360.12
357.08	357.12
357.307	365.12
357.534	369.12
357.761	373.12
357.988	350.12
358.215	361.12
358.441	376.12
358.668	376.12
358.895	385.12
359.122	383.12
359.349	383.12
359.576	405.12
359.802	445.12
360.029	453.12
360.256	474.12
360.483	447.12
360.709	408.12
360.936	396.12
361.163	404.12
361.39	403.12
361.616	403.12
361.843	398.12
362.07	410.12
362.296	420.12
362.523	391.12
362.749	396.12
362.976	408.12
363.203	373.12
363.429	400.12
363.656	391.12
363.882	377.12
364.109	401.12
364.335	374.12
364.562	366.12
364.788	389.12
365.015	374.12
365.241	383.12
365.468	392.12
365.694	376.12
365.92	388.12
366.147	393.12
366.373	378.12
366.599	370.12
366.826	364.12
367.052	375.12
367.278	379.12
367.505	374.12
367.731	372.12
367.957	378.12
368.184	389.12
368.41	380.12
368.636	401.12
368.862	394.12
369.089	389.12
369.315	374.12
369.541	383.12
369.767	370.12
369.993	376.12
370.219	380.12
370.445	375.12
370.672	381.12
370.898	350.12
371.124	367.12
371.35	392.12
371.576	369.12
371.802	373.12
372.028	354.12
372.254	362.12
372.48	353.12
372.706	370.12
372.932	375.12
373.158	353.12
373.384	379.12
373.61	368.12
373.835	355.12
374.061	384.12
374.287	385.12
374.513	363.12
374.739	369.12
374.965	376.12
375.191	369.12
375.416	384.12
375.642	364.12
375.868	361.12
376.094	335.12
376.319	358.12
376.545	384.12
376.771	346.12
376.997	353.12
377.222	359.12
377.448	373.12
377.674	366.12
377.899	377.12
378.125	369.12
378.35	361.12
378.576	351.12
378.802	348.12
379.027	380.12
379.253	365.12
379.478	346.12
379.704	350.12
379.929	352.12
380.155	333.12
380.38	345.12
380.606	347.12
380.831	351.12
381.057	352.12
381.282	376.12
381.507	364.12
381.733	361.12
381.958	356.12
382.184	363.12
382.409	354.12
382.634	352.12
382.86	350.12
383.085	366.12
383.31	384.12
383.535	358.12
383.761	344.12
383.986	359.12
384.211	363.12
384.436	373.12
384.662	378.12
384.887	385.12
385.112	360.12
385.337	368.12
385.562	380.12
385.787	364.12
386.013	380.12
386.238	400.12
386.463	382.12
386.688	368.12
386.913	390.12
387.138	379.12
387.363	376.12
387.588	370.12
387.813	374.12
388.038	384.12
388.263	383.12
388.488	377.12
388.713	381.12
388.938	381.12
389.163	379.12
389.387	375.12
389.612	375.12
389.837	368.12
390.062	384.12
390.287	374.12
390.512	372.12
390.736	380.12
390.961	385.12
391.186	389.12
391.411	373.12
391.636	369.12
391.86	379.12
392.085	380.12
392.31	395.12
392.534	405.12
392.759	384.12
392.984	372.12
393.208	382.12
393.433	385.12
393.658	385.12
393.882	384.12
394.107	372.12
394.331	382.12
394.556	390.12
394.78	368.12
395.005	400.12
395.229	393.12
395.454	396.12
395.678	402.12
395.903	403.12
396.127	440.12
396.352	423.12
396.576	395.12
396.801	417.12
397.025	395.12
397.249	387.12
397.474	384.12
397.698	399.12
397.922	423.12
398.147	443.12
398.371	444.12
398.595	399.12
398.82	426.12
399.044	432.12
399.268	446.12
399.492	459.12
399.717	466.12
399.941	487.12
400.165	535.12
400.389	546.12
400.613	505.12
400.837	454.12
401.062	438.12
401.286	442.12
401.51	447.12
401.734	429.12
401.958	452.12
402.182	446.12
402.406	450.12
402.63	457.12
402.854	436.12
403.078	464.12
403.302	452.12
403.526	465.12
403.75	443.12
403.974	453.12
404.198	452.12
404.422	438.12
404.645	457.12
404.869	455.12
405.093	496.12
405.317	561.12
405.541	590.12
405.765	538.12
405.988	468.12
406.212	511.12
406.436	526.12
406.66	552.12
406.883	507.12
407.107	525.12
407.331	570.12
407.555	629.12
407.778	602.12
408.002	543.12
408.226	512.12
408.449	504.12
408.673	504.12
408.896	552.12
409.12	576.12
409.344	518.12
409.567	488.12
409.791	482.12
410.014	454.12
410.238	451.12
410.461	449.12
410.685	469.12
410.908	470.12
411.132	533.12
411.355	570.12
411.578	527.12
411.802	489.12
412.025	482.12
412.249	476.12
412.472	521.12
412.695	549.12
412.919	537.12
413.142	485.12
413.365	445.12
413.589	436.12
413.812	425.12
414.035	429.12
414.258	423.12
414.482	411.12
414.705	407.12
414.928	438.12
415.151	420.12
415.374	414.12
415.597	428.12
415.821	414.12
416.044	438.12
416.267	428.12
416.49	408.12
416.713	426.12
416.936	436.12
417.159	428.12
417.382	437.12
417.605	449.12
417.828	461.12
418.051	466.12
418.274	446.12
418.497	435.12
418.72	430.12
418.943	425.12
419.166	450.12
419.389	463.12
419.611	453.12
419.834	449.12
420.057	457.12
420.28	463.12
420.503	475.12
420.726	465.12
420.948	474.12
421.171	497.12
421.394	569.12
421.617	501.12
421.839	481.12
422.062	456.12
422.285	463.12
422.507	525.12
422.73	630.12
422.953	628.12
423.175	517.12
423.398	483.12
423.621	475.12
423.843	493.12
424.066	504.12
424.288	502.12
424.511	539.12
424.733	589.12
424.956	666.12
425.178	648.12
425.401	641.12
425.623	666.12
425.846	566.12
426.068	539.12
426.291	498.12
426.513	498.12
426.735	527.12
426.958	567.12
427.18	669.12
427.402	796.12
427.625	897.12
427.847	807.12
428.069	676.12
428.292	577.12
428.514	527.12
428.736	514.12
428.958	500.12
429.181	473.12
429.403	488.12
429.625	472.12
429.847	519.12
430.069	600.12
430.292	607.12
430.514	496.12
430.736	456.12
430.958	464.12
431.18	466.12
431.402	437.12
431.624	448.12
431.846	420.12
432.068	429.12
432.29	431.12
432.512	427.12
432.734	451.12
432.956	437.12
433.178	464.12
433.4	475.12
433.622	464.12
433.844	457.12
434.066	439.12
434.287	433.12
434.509	429.12
434.731	441.12
434.953	449.12
435.175	457.12
435.397	472.12
435.618	537.12
435.84	582.12
436.062	665.12
436.284	739.12
436.505	614.12
436.727	544.12
436.949	490.12
437.17	470.12
437.392	478.12
437.614	495.12
437.835	561.12
438.057	657.12
438.278	750.12
438.5	727.12
438.721	815.12
438.943	780.12
439.165	656.12
439.386	552.12
439.608	552.12
439.829	553.12
440.05	583.12
440.272	649.12
440.493	612.12
440.715	527.12
440.936	501.12
441.158	491.12
441.379	460.12
441.6	497.12
441.822	512.12
442.043	564.12
442.264	636.12
442.486	676.12
442.707	580.12
442.928	540.12
443.149	530.12
443.371	570.12
443.592	641.12
443.813	719.12
444.034	742.12
444.255	605.12
444.476	549.12
444.698	502.12
444.919	504.12
445.14	610.12
445.361	585.12
445.582	558.12
445.803	653.12
446.024	765.12
446.245	784.12
446.466	718.12
446.687	579.12
446.908	552.12
447.129	499.12
447.35	492.12
447.571	486.12
447.792	474.12
448.013	477.12
448.234	505.12
448.455	566.12
448.675	706.12
448.896	781.12
449.117	670.12
449.338	647.12
449.559	740.12
449.779	815.12
450	672.12
450.221	528.12
450.442	496.12
450.662	495.12
450.883	469.12
451.104	510.12
451.324	497.12
451.545	463.12
451.766	447.12
451.986	455.12
452.207	441.12
452.428	433.12
452.648	434.12
452.869	421.12
453.089	457.12
453.31	449.12
453.53	431.12
453.751	434.12
453.971	445.12
454.192	471.12
454.412	454.12
454.633	449.12
454.853	417.12
455.073	422.12
455.294	466.12
455.514	537.12
455.734	523.12
455.955	442.12
456.175	430.12
456.395	412.12
456.616	399.12
456.836	382.12
457.056	384.12
457.276	380.12
457.497	382.12
457.717	394.12
457.937	409.12
458.157	426.12
458.377	406.12
458.598	429.12
458.818	498.12
459.038	605.12
459.258	625.12
459.478	530.12
459.698	455.12
459.918	418.12
460.138	422.12
460.358	442.12
460.578	417.12
460.798	427.12
461.018	457.12
461.238	435.12
461.458	430.12
461.678	402.12
461.898	422.12
462.118	425.12
462.338	435.12
462.558	422.12
462.777	420.12
462.997	433.12
463.217	441.12
463.437	456.12
463.657	446.12
463.876	460.12
464.096	430.12
464.316	458.12
464.536	450.12
464.755	477.12
464.975	489.12
465.195	493.12
465.414	631.12
465.634	564.12
465.854	496.12
466.073	456.12
466.293	413.12
466.512	440.12
466.732	428.12
466.951	426.12
467.171	413.12
467.391	433.12
467.61	435.12
467.829	458.12
468.049	450.12
468.268	480.12
468.488	432.12
468.707	420.12
468.927	423.12
469.146	403.12
469.365	409.12
469.585	418.12
469.804	425.12
470.023	431.12
470.243	428.12
470.462	465.12
470.681	452.12
470.901	452.12
471.12	448.12
471.339	422.12
471.558	440.12
471.777	422.12
471.997	425.12
472.216	437.12
472.435	511.12
472.654	494.12
472.873	444.12
473.092	437.12
473.311	432.12
473.53	440.12
473.749	444.12
473.968	493.12
474.187	618.12
474.406	666.12
474.625	509.12
474.844	472.12
475.063	436.12
475.282	432.12
475.501	443.12
475.72	441.12
475.939	432.12
476.158	450.12
476.377	444.12
476.596	434.12
476.814	444.12
477.033	467.12
477.252	456.12
477.471	452.12
477.69	473.12
477.908	442.12
478.127	476.12
478.346	452.12
478.564	476.12
478.783	470.12
479.002	500.12
479.22	488.12
479.439	507.12
479.658	556.12
479.876	543.12
480.095	545.12
480.313	563.12
480.532	564.12
480.751	531.12
480.969	549.12
481.188	625.12
481.406	690.12
481.624	593.12
481.843	541.12
482.061	553.12
482.28	535.12
482.498	512.12
482.717	518.12
482.935	501.12
483.153	492.12
483.372	528.12
483.59	521.12
483.808	475.12
484.027	508.12
484.245	501.12
484.463	508.12
484.681	508.12
484.9	527.12
485.118	509.12
485.336	516.12
485.554	516.12
485.772	524.12
485.99	529.12
486.209	506.12
486.427	537.12
486.645	552.12
486.863	581.12
487.081	568.12
487.299	559.12
487.517	556.12
487.735	542.12
487.953	544.12
488.171	522.12
488.389	544.12
488.607	558.12
488.825	566.12
489.043	539.12
489.261	544.12
489.479	561.12
489.696	555.12
489.914	560.12
490.132	567.12
490.35	574.12
490.568	572.12
490.786	579.12
491.003	610.12
491.221	609.12
491.439	616.12
491.657	615.12
491.874	614.12
492.092	621.12
492.31	631.12
492.527	624.12
492.745	631.12
492.963	650.12
493.18	652.12
493.398	651.12
493.615	654.12
493.833	648.12
494.05	664.12
494.268	653.12
494.485	637.12
494.703	644.12
494.92	660.12
495.138	654.12
495.355	658.12
495.573	673.12
495.79	644.12
496.008	665.12
496.225	664.12
496.442	655.12
496.66	664.12
496.877	652.12
497.094	671.12
497.312	648.12
497.529	678.12
497.746	694.12
497.963	694.12
498.181	688.12
498.398	715.12
498.615	704.12
498.832	721.12
499.049	705.12
499.267	699.12
499.484	716.12
499.701	737.12
499.918	738.12
500.135	780.12
500.352	777.12
500.569	803.12
500.786	790.12
501.003	808.12
501.22	809.12
501.437	818.12
501.654	795.12
501.871	768.12
502.088	776.12
502.305	718.12
502.522	715.12
502.739	716.12
502.956	676.12
503.172	668.12
503.389	677.12
503.606	688.12
503.823	683.12
504.04	659.12
504.256	674.12
504.473	656.12
504.69	658.12
504.907	655.12
505.123	641.12
505.34	635.12
505.557	599.12
505.773	622.12
505.99	622.12
506.207	630.12
506.423	624.12
506.64	627.12
506.856	648.12
507.073	637.12
507.289	654.12
507.506	619.12
507.722	640.12
507.939	677.12
508.155	666.12
508.372	622.12
508.588	616.12
508.805	625.12
509.021	620.12
509.238	618.12
509.454	637.12
509.67	637.12
509.887	625.12
510.103	625.12
510.319	635.12
510.536	767.12
510.752	1377.12
510.968	1081.12
511.184	670.12
511.401	614.12
511.617	612.12
511.833	603.12
512.049	588.12
512.265	587.12
512.481	568.12
512.698	580.12
512.914	580.12
513.13	583.12
513.346	555.12
513.562	584.12
513.778	574.12
513.994	609.12
514.21	625.12
514.426	648.12
514.642	704.12
514.858	727.12
515.074	786.12
515.29	989.12
515.506	1506.12
515.721	1229.12
515.937	756.12
516.153	678.12
516.369	652.12
516.585	637.12
516.801	597.12
517.016	615.12
517.232	598.12
517.448	590.12
517.664	602.12
517.879	598.12
518.095	576.12
518.311	588.12
518.527	602.12
518.742	568.12
518.958	577.12
519.173	562.12
519.389	591.12
519.605	583.12
519.82	595.12
520.036	610.12
520.251	645.12
520.467	684.12
520.682	674.12
520.898	704.12
521.113	726.12
521.329	810.12
521.544	944.12
521.76	1199.12
521.975	2072.12
522.19	2006.12
522.406	1001.12
522.621	744.12
522.836	687.12
523.052	604.12
523.267	604.12
523.482	566.12
523.698	569.12
523.913	566.12
524.128	558.12
524.343	538.12
524.559	535.12
524.774	521.12
524.989	522.12
525.204	558.12
525.419	524.12
525.634	508.12
525.849	470.12
526.064	490.12
526.28	493.12
526.495	469.12
526.71	477.12
526.925	466.12
527.14	473.12
527.355	485.12
527.57	471.12
527.785	478.12
527.999	477.12
528.214	477.12
528.429	463.12
528.644	474.12
528.859	472.12
529.074	441.12
529.289	481.12
529.503	600.12
529.718	580.12
529.933	544.12
530.148	510.12
530.363	480.12
530.577	466.12
530.792	460.12
531.007	448.12
531.221	460.12
531.436	456.12
531.651	445.12
531.865	453.12
532.08	447.12
532.295	449.12
532.509	467.12
532.724	429.12
532.938	462.12
533.153	451.12
533.367	447.12
533.582	444.12
533.796	436.12
534.011	440.12
534.225	414.12
534.44	439.12
534.654	431.12
534.868	422.12
535.083	442.12
535.297	442.12
535.511	442.12
535.726	464.12
535.94	453.12
536.154	430.12
536.369	429.12
536.583	413.12
536.797	453.12
537.011	424.12
537.225	437.12
537.44	445.12
537.654	417.12
537.868	408.12
538.082	416.12
538.296	440.12
538.51	423.12
538.724	417.12
538.938	406.12
539.153	420.12
539.367	458.12
539.581	413.12
539.795	429.12
540.009	438.12
540.222	436.12
540.436	443.12
540.65	424.12
540.864	442.12
541.078	443.12
541.292	447.12
541.506	413.12
541.72	414.12
541.934	417.12
542.147	436.12
542.361	425.12
542.575	416.12
542.789	432.12
543.002	418.12
543.216	425.12
543.43	446.12
543.644	442.12
543.857	404.12
544.071	428.12
544.285	446.12
544.498	398.12
544.712	409.12
544.925	418.12
545.139	423.12
545.352	420.12
545.566	407.12
545.779	413.12
545.993	412.12
546.206	425.12
546.42	424.12
546.633	411.12
546.847	404.12
547.06	402.12
547.274	406.12
547.487	408.12
547.7	403.12
547.914	388.12
548.127	392.12
548.34	407.12
548.554	384.12
548.767	397.12
548.98	403.12
549.193	392.12
549.407	409.12
549.62	405.12
549.833	392.12
550.046	392.12
550.259	378.12
550.473	380.12
550.686	381.12
550.899	402.12
551.112	375.12
551.325	380.12
551.538	374.12
551.751	370.12
551.964	363.12
552.177	381.12
552.39	382.12
552.603	391.12
552.816	380.12
553.029	370.12
553.242	390.12
553.455	399.12
553.667	394.12
553.88	406.12
554.093	417.12
554.306	391.12
554.519	384.12
554.732	400.12
554.944	392.12
555.157	400.12
555.37	374.12
555.583	367.12
555.795	376.12
556.008	379.12
556.221	364.12
556.433	371.12
556.646	366.12
556.859	367.12
557.071	361.12
557.284	379.12
557.496	368.12
557.709	370.12
557.921	359.12
558.134	361.12
558.346	361.12
558.559	338.12
558.771	358.12
558.984	357.12
559.196	356.12
559.409	366.12
559.621	340.12
559.833	365.12
560.046	358.12
560.258	360.12
560.47	338.12
560.683	337.12
560.895	352.12
561.107	341.12
561.32	352.12
561.532	374.12
561.744	350.12
561.956	340.12
562.168	354.12
562.381	369.12
562.593	346.12
562.805	351.12
563.017	379.12
563.229	349.12
563.441	374.12
563.653	374.12
563.865	334.12
564.077	364.12
564.289	346.12
564.501	363.12
564.713	338.12
564.925	358.12
565.137	397.12
565.349	380.12
565.561	356.12
565.773	388.12
565.985	358.12
566.197	380.12
566.408	369.12
566.62	368.12
566.832	404.12
567.044	386.12
567.255	384.12
567.467	383.12
567.679	412.12
567.891	398.12
568.102	410.12
568.314	406.12
568.526	385.12
568.737	373.12
568.949	382.12
569.161	382.12
569.372	365.12
569.584	346.12
569.795	357.12
570.007	373.12
570.218	420.12
570.43	409.12
570.641	353.12
570.853	330.12
571.064	342.12
571.276	340.12
571.487	347.12
571.698	335.12
571.91	345.12
572.121	337.12
572.333	299.12
572.544	326.12
572.755	326.12
572.966	323.12
573.178	305.12
573.389	305.12
573.6	323.12
573.811	301.12
574.023	305.12
574.234	297.12
574.445	294.12
574.656	320.12
574.867	300.12
575.078	313.12
575.289	314.12
575.501	306.12
575.712	311.12
575.923	308.12
576.134	297.12
576.345	289.12
576.556	289.12
576.767	316.12
576.978	300.12
577.188	293.12
577.399	275.12
577.61	306.12
577.821	274.12
578.032	299.12
578.243	349.12
578.454	623.12
578.665	464.12
578.875	311.12
579.086	284.12
579.297	289.12
579.508	279.12
579.718	300.12
579.929	288.12
580.14	273.12
580.35	300.12
580.561	280.12
580.772	297.12
580.982	296.12
581.193	265.12
581.403	293.12
581.614	282.12
581.825	268.12
582.035	271.12
582.246	278.12
582.456	281.12
582.667	277.12
582.877	270.12
583.087	269.12
583.298	279.12
583.508	277.12
583.719	282.12
583.929	289.12
584.139	275.12
584.35	273.12
584.56	272.12
584.77	277.12
584.981	272.12
585.191	281.12
585.401	260.12
585.611	280.12
585.821	286.12
586.032	278.12
586.242	274.12
586.452	274.12
586.662	285.12
586.872	266.12
587.082	263.12
587.292	272.12
587.502	263.12
587.713	266.12
587.923	276.12
588.133	278.12
588.343	276.12
588.553	268.12
588.762	261.12
588.972	266.12
589.182	280.12
589.392	266.12
589.602	264.12
589.812	297.12
590.022	266.12
590.232	262.12
590.441	255.12
590.651	255.12
590.861	262.12
591.071	266.12
591.281	266.12
591.49	288.12
591.7	246.12
591.91	281.12
592.119	272.12
592.329	285.12
592.539	268.12
592.748	272.12
592.958	273.12
593.167	271.12
593.377	270.12
593.587	280.12
593.796	294.12
594.006	268.12
594.215	281.12
594.424	278.12
594.634	277.12
594.843	267.12
595.053	293.12
595.262	286.12
595.472	287.12
595.681	253.12
595.89	259.12
596.1	256.12
596.309	277.12
596.518	279.12
596.727	270.12
596.937	265.12
597.146	250.12
597.355	269.12
597.564	238.12
597.774	249.12
597.983	240.12
598.192	247.12
598.401	250.12
598.61	239.12
598.819	243.12
599.028	253.12
599.237	241.12
599.446	248.12
599.655	241.12
599.864	239.12
600.073	237.12
600.282	254.12
600.491	232.12
600.7	235.12
600.909	232.12
601.118	249.12
601.327	252.12
601.536	251.12
601.745	241.12
601.953	239.12
602.162	241.12
602.371	243.12
602.58	234.12
602.789	238.12
602.997	236.12
603.206	247.12
603.415	245.12
603.623	246.12
603.832	245.12
604.041	225.12
604.249	229.12
604.458	213.12
604.666	225.12
604.875	239.12
605.084	232.12
605.292	230.12
605.501	205.12
605.709	212.12
605.918	229.12
606.126	245.12
606.334	241.12
606.543	223.12
606.751	217.12
606.96	228.12
607.168	208.12
607.376	208.12
607.585	233.12
607.793	227.12
608.001	238.12
608.21	222.12
608.418	233.12
608.626	230.12
608.834	236.12
609.043	217.12
609.251	227.12
609.459	233.12
609.667	229.12
609.875	240.12
610.083	219.12
610.291	230.12
610.499	228.12
610.707	221.12
610.916	228.12
611.124	220.12
611.332	232.12
611.54	234.12
611.748	238.12
611.955	236.12
612.163	212.12
612.371	208.12
612.579	206.12
612.787	201.12
612.995	218.12
613.203	204.12
613.411	234.12
613.618	224.12
613.826	211.12
614.034	217.12
614.242	229.12
614.449	222.12
614.657	213.12
614.865	215.12
615.072	230.12
615.28	226.12
615.488	213.12
615.695	208.12
615.903	223.12
616.111	215.12
616.318	221.12
616.526	219.12
616.733	223.12
616.941	218.12
617.148	210.12
617.356	229.12
617.563	215.12
617.771	209.12
617.978	217.12
618.185	226.12
618.393	205.12
618.6	218.12
618.807	207.12
619.015	209.12
619.222	229.12
619.429	205.12
619.637	220.12
619.844	204.12
620.051	214.12
620.258	216.12
620.466	207.12
620.673	222.12
620.88	213.12
621.087	197.12
621.294	200.12
621.501	201.12
621.708	223.12
621.915	214.12
622.122	206.12
622.329	219.12
622.536	208.12
622.743	209.12
622.95	200.12
623.157	188.12
623.364	197.12
623.571	215.12
623.778	209.12
623.985	221.12
624.192	210.12
624.399	210.12
624.606	206.12
624.812	201.12
625.019	205.12
625.226	203.12
625.433	208.12
625.639	209.12
625.846	186.12
626.053	199.12
626.259	202.12
626.466	190.12
626.673	207.12
626.879	182.12
627.086	199.12
627.293	199.12
627.499	205.12
627.706	192.12
627.912	192.12
628.119	196.12
628.325	175.12
628.532	201.12
628.738	197.12
628.945	197.12
629.151	188.12
629.357	194.12
629.564	185.12
629.77	205.12
629.976	195.12
630.183	185.12
630.389	191.12
630.595	165.12
630.802	188.12
631.008	186.12
631.214	185.12
631.42	197.12
631.627	184.12
631.833	172.12
632.039	164.12
632.245	179.12
632.451	193.12
632.657	174.12
632.863	165.12
633.069	178.12
633.275	173.12
633.481	178.12
633.688	182.12
633.893	176.12
634.099	191.12
634.305	186.12
634.511	175.12
634.717	176.12
634.923	176.12
635.129	160.12
635.335	175.12
635.541	184.12
635.747	163.12
635.952	177.12
636.158	183.12
636.364	180.12
636.57	188.12
636.775	181.12
636.981	184.12
637.187	173.12
637.392	172.12
637.598	172.12
637.804	169.12
638.009	170.12
638.215	174.12
638.421	173.12
638.626	176.12
638.832	173.12
639.037	175.12
639.243	164.12
639.448	164.12
639.654	168.12
639.859	159.12
640.065	168.12
640.27	178.12
640.475	166.12
640.681	184.12
640.886	176.12
641.091	171.12
641.297	167.12
641.502	166.12
641.707	150.12
641.913	168.12
642.118	159.12
642.323	164.12
642.528	153.12
642.733	180.12
642.939	167.12
643.144	173.12
643.349	162.12
643.554	157.12
643.759	158.12
643.964	168.12
644.169	166.12
644.374	171.12
644.579	176.12
644.784	164.12
644.989	165.12
645.194	153.12
645.399	159.12
645.604	161.12
645.809	171.12
646.014	159.12
646.219	163.12
646.423	170.12
646.628	161.12
646.833	169.12
647.038	160.12
647.243	154.12
647.447	164.12
647.652	161.12
647.857	156.12
648.062	154.12
648.266	157.12
648.471	158.12
648.676	165.12
648.88	168.12
649.085	155.12
649.289	160.12
649.494	167.12
649.698	191.12
649.903	182.12
650.107	173.12
650.312	145.12
650.516	137.12
650.721	161.12
650.925	154.12
651.13	139.12
651.334	134.12
651.539	133.12
651.743	136.12
651.947	156.12
652.152	145.12
652.356	152.12
652.56	153.12
652.764	142.12
652.969	143.12
653.173	134.12
653.377	134.12
653.581	141.12
653.785	135.12
653.99	148.12
654.194	137.12
654.398	122.12
654.602	128.12
654.806	143.12
655.01	134.12
655.214	142.12
655.418	128.12
655.622	131.12
655.826	138.12
656.03	140.12
656.234	119.12
656.438	120.12
656.642	124.12
656.846	128.12
657.049	117.12
657.253	118.12
657.457	112.12
657.661	109.12
657.865	104.12
658.068	116.12
658.272	109.12
658.476	116.12
658.68	103.12
658.883	93.12
659.087	110.12
659.291	104.12
659.494	105.12
659.698	90.12
659.901	103.12
660.105	96.12
660.309	91.12
660.512	98.12
660.716	89.12
660.919	94.12
661.123	93.12
661.326	86.12
661.53	83.12
661.733	88.12
661.936	84.12
662.14	98.12
662.343	91.12
662.546	80.12
662.75	90.12
662.953	98.12
663.156	88.12
663.36	91.12
663.563	82.12
663.766	95.12
663.969	102.12
664.173	90.12
664.376	92.12
664.579	84.12
664.782	85.12
664.985	79.12
665.188	89.12
665.391	92.12
665.594	94.12
665.797	92.12
666	89.12
666.203	93.12
666.406	79.12
666.609	82.12
666.812	93.12
667.015	88.12
667.218	87.12
667.421	82.12
667.624	88.12
667.827	77.12
668.03	90.12
668.232	100.12
668.435	102.12
668.638	87.12
668.841	79.12
669.043	79.12
669.246	90.12
669.449	87.12
669.651	102.12
669.854	80.12
670.057	82.12
670.259	82.12
670.462	81.12
670.665	77.12
670.867	78.12
671.07	85.12
671.272	86.12
671.475	86.12
671.677	76.12
671.88	87.12
672.082	96.12
672.284	86.12
672.487	84.12
672.689	90.12
672.892	88.12
