Data from 1974.PennyLincolnUp.Lamp.En5.5.200Scan.071719.P1.Changed Mount._HRD10591_15-53-09-857.txt Node
Date: Thu Jul 18 15:53:09 EDT 2019
User: cochatt
Spectrometer: HR+D1059
Trigger mode: 1
Integration Time (sec): 1.000000E-1
Scans to average: 1
Electric dark correction enabled: true
Nonlinearity correction enabled: false
Boxcar width: 0
XAxis mode: Wavelengths
Number of Pixels in Spectrum: 2048
>>>>>Begin Spectral Data<<<<<
223.165	-19.88
223.4	-19.88
223.635	-19.88
223.869	-12.88
224.104	-13.88
224.338	-13.88
224.573	-7.88
224.808	-17.88
225.042	-10.88
225.277	-12.88
225.511	6.12
225.746	8.12
225.98	18.12
226.215	4.12
226.449	4.12
226.683	19.12
226.918	28.12
227.152	22.12
227.387	31.12
227.621	36.12
227.856	30.12
228.09	40.12
228.324	52.12
228.559	61.12
228.793	66.12
229.027	111.12
229.262	121.12
229.496	116.12
229.73	131.12
229.964	160.12
230.199	136.12
230.433	103.12
230.667	130.12
230.901	118.12
231.136	117.12
231.37	119.12
231.604	119.12
231.838	99.12
232.072	114.12
232.306	116.12
232.541	124.12
232.775	122.12
233.009	126.12
233.243	117.12
233.477	129.12
233.711	116.12
233.945	107.12
234.179	111.12
234.413	117.12
234.647	117.12
234.881	129.12
235.115	118.12
235.349	122.12
235.583	127.12
235.817	115.12
236.051	135.12
236.285	156.12
236.519	119.12
236.753	135.12
236.987	144.12
237.221	187.12
237.455	241.12
237.689	202.12
237.922	148.12
238.156	142.12
238.39	150.12
238.624	133.12
238.858	132.12
239.091	132.12
239.325	131.12
239.559	145.12
239.793	119.12
240.027	147.12
240.26	138.12
240.494	170.12
240.728	163.12
240.961	153.12
241.195	141.12
241.429	151.12
241.662	137.12
241.896	142.12
242.13	134.12
242.363	132.12
242.597	136.12
242.83	150.12
243.064	140.12
243.298	149.12
243.531	142.12
243.765	142.12
243.998	136.12
244.232	159.12
244.465	142.12
244.699	158.12
244.932	154.12
245.166	145.12
245.399	148.12
245.633	151.12
245.866	145.12
246.099	134.12
246.333	154.12
246.566	151.12
246.8	162.12
247.033	169.12
247.266	163.12
247.5	158.12
247.733	178.12
247.966	189.12
248.2	176.12
248.433	174.12
248.666	183.12
248.899	196.12
249.133	206.12
249.366	207.12
249.599	219.12
249.832	202.12
250.066	191.12
250.299	195.12
250.532	201.12
250.765	206.12
250.998	214.12
251.231	243.12
251.465	221.12
251.698	221.12
251.931	216.12
252.164	225.12
252.397	204.12
252.63	206.12
252.863	223.12
253.096	238.12
253.329	247.12
253.562	247.12
253.795	230.12
254.028	222.12
254.261	229.12
254.494	246.12
254.727	262.12
254.96	291.12
255.193	262.12
255.426	263.12
255.659	258.12
255.892	228.12
256.124	243.12
256.357	267.12
256.59	212.12
256.823	264.12
257.056	231.12
257.289	224.12
257.521	227.12
257.754	220.12
257.987	221.12
258.22	228.12
258.452	207.12
258.685	213.12
258.918	215.12
259.151	218.12
259.383	232.12
259.616	235.12
259.849	231.12
260.081	253.12
260.314	278.12
260.547	289.12
260.779	247.12
261.012	229.12
261.244	238.12
261.477	239.12
261.71	236.12
261.942	228.12
262.175	218.12
262.407	236.12
262.64	233.12
262.872	209.12
263.105	230.12
263.337	223.12
263.57	231.12
263.802	227.12
264.035	232.12
264.267	218.12
264.499	237.12
264.732	227.12
264.964	226.12
265.197	224.12
265.429	234.12
265.661	217.12
265.894	229.12
266.126	232.12
266.358	235.12
266.591	240.12
266.823	241.12
267.055	224.12
267.287	219.12
267.52	239.12
267.752	233.12
267.984	228.12
268.216	256.12
268.448	250.12
268.681	254.12
268.913	251.12
269.145	286.12
269.377	291.12
269.609	274.12
269.841	285.12
270.073	299.12
270.306	317.12
270.538	333.12
270.77	332.12
271.002	323.12
271.234	306.12
271.466	311.12
271.698	315.12
271.93	342.12
272.162	318.12
272.394	336.12
272.626	335.12
272.858	315.12
273.09	320.12
273.322	278.12
273.553	277.12
273.785	292.12
274.017	282.12
274.249	267.12
274.481	270.12
274.713	290.12
274.945	278.12
275.176	286.12
275.408	294.12
275.64	288.12
275.872	282.12
276.104	288.12
276.335	301.12
276.567	305.12
276.799	306.12
277.031	325.12
277.262	322.12
277.494	351.12
277.726	326.12
277.957	310.12
278.189	309.12
278.421	285.12
278.652	313.12
278.884	326.12
279.115	308.12
279.347	272.12
279.579	284.12
279.81	281.12
280.042	282.12
280.273	299.12
280.505	310.12
280.736	283.12
280.968	283.12
281.199	281.12
281.431	306.12
281.662	293.12
281.894	298.12
282.125	280.12
282.356	300.12
282.588	313.12
282.819	329.12
283.051	314.12
283.282	296.12
283.513	303.12
283.745	306.12
283.976	306.12
284.207	313.12
284.439	295.12
284.67	288.12
284.901	322.12
285.132	320.12
285.364	321.12
285.595	301.12
285.826	301.12
286.057	323.12
286.288	303.12
286.52	301.12
286.751	315.12
286.982	304.12
287.213	315.12
287.444	310.12
287.675	311.12
287.906	319.12
288.138	330.12
288.369	323.12
288.6	341.12
288.831	319.12
289.062	323.12
289.293	329.12
289.524	314.12
289.755	317.12
289.986	300.12
290.217	322.12
290.448	292.12
290.679	314.12
290.91	318.12
291.141	326.12
291.371	324.12
291.602	332.12
291.833	324.12
292.064	330.12
292.295	301.12
292.526	324.12
292.757	324.12
292.987	303.12
293.218	325.12
293.449	334.12
293.68	308.12
293.91	309.12
294.141	322.12
294.372	318.12
294.603	303.12
294.833	303.12
295.064	326.12
295.295	326.12
295.525	319.12
295.756	329.12
295.987	340.12
296.217	339.12
296.448	367.12
296.679	350.12
296.909	348.12
297.14	318.12
297.37	331.12
297.601	343.12
297.831	339.12
298.062	332.12
298.292	342.12
298.523	333.12
298.753	346.12
298.984	342.12
299.214	339.12
299.445	340.12
299.675	339.12
299.905	345.12
300.136	332.12
300.366	325.12
300.597	341.12
300.827	347.12
301.057	342.12
301.288	362.12
301.518	358.12
301.748	347.12
301.979	362.12
302.209	360.12
302.439	348.12
302.669	352.12
302.9	346.12
303.13	347.12
303.36	358.12
303.59	356.12
303.82	364.12
304.051	359.12
304.281	351.12
304.511	375.12
304.741	351.12
304.971	364.12
305.201	368.12
305.431	346.12
305.661	363.12
305.891	362.12
306.121	355.12
306.352	344.12
306.582	358.12
306.812	351.12
307.042	384.12
307.272	377.12
307.502	346.12
307.731	362.12
307.961	365.12
308.191	358.12
308.421	363.12
308.651	358.12
308.881	347.12
309.111	380.12
309.341	365.12
309.571	374.12
309.8	383.12
310.03	377.12
310.26	406.12
310.49	384.12
310.72	402.12
310.949	408.12
311.179	434.12
311.409	406.12
311.639	368.12
311.868	401.12
312.098	386.12
312.328	418.12
312.557	407.12
312.787	423.12
313.017	406.12
313.246	401.12
313.476	398.12
313.706	413.12
313.935	397.12
314.165	424.12
314.394	420.12
314.624	420.12
314.853	419.12
315.083	412.12
315.312	409.12
315.542	393.12
315.771	385.12
316.001	405.12
316.23	397.12
316.46	420.12
316.689	426.12
316.919	406.12
317.148	410.12
317.377	421.12
317.607	406.12
317.836	422.12
318.065	401.12
318.295	410.12
318.524	416.12
318.753	407.12
318.983	409.12
319.212	401.12
319.441	424.12
319.67	421.12
319.9	412.12
320.129	422.12
320.358	398.12
320.587	407.12
320.816	430.12
321.046	416.12
321.275	436.12
321.504	425.12
321.733	399.12
321.962	407.12
322.191	439.12
322.42	445.12
322.649	432.12
322.878	484.12
323.108	464.12
323.337	483.12
323.566	519.12
323.795	527.12
324.024	547.12
324.253	608.12
324.482	837.12
324.71	1252.12
324.939	1884.12
325.168	1687.12
325.397	882.12
325.626	615.12
325.855	552.12
326.084	509.12
326.313	505.12
326.542	501.12
326.77	529.12
326.999	615.12
327.228	785.12
327.457	1138.12
327.686	1446.12
327.914	969.12
328.143	666.12
328.372	607.12
328.6	570.12
328.829	541.12
329.058	558.12
329.287	564.12
329.515	544.12
329.744	514.12
329.972	518.12
330.201	515.12
330.43	547.12
330.658	575.12
330.887	612.12
331.115	579.12
331.344	536.12
331.572	504.12
331.801	502.12
332.03	494.12
332.258	492.12
332.486	486.12
332.715	473.12
332.943	482.12
333.172	498.12
333.4	505.12
333.629	521.12
333.857	534.12
334.085	514.12
334.314	525.12
334.542	555.12
334.771	584.12
334.999	554.12
335.227	533.12
335.455	511.12
335.684	501.12
335.912	501.12
336.14	478.12
336.369	489.12
336.597	510.12
336.825	498.12
337.053	495.12
337.281	482.12
337.51	476.12
337.738	461.12
337.966	471.12
338.194	492.12
338.422	474.12
338.65	498.12
338.878	481.12
339.106	471.12
339.334	463.12
339.562	471.12
339.79	470.12
340.018	488.12
340.246	458.12
340.474	474.12
340.702	483.12
340.93	470.12
341.158	478.12
341.386	457.12
341.614	464.12
341.842	480.12
342.07	462.12
342.298	479.12
342.526	459.12
342.754	447.12
342.981	450.12
343.209	454.12
343.437	481.12
343.665	486.12
343.893	490.12
344.12	511.12
344.348	476.12
344.576	495.12
344.804	478.12
345.031	479.12
345.259	493.12
345.487	472.12
345.714	482.12
345.942	468.12
346.17	448.12
346.397	481.12
346.625	451.12
346.853	457.12
347.08	433.12
347.308	455.12
347.535	451.12
347.763	473.12
347.99	469.12
348.218	476.12
348.445	454.12
348.673	457.12
348.9	439.12
349.128	440.12
349.355	440.12
349.583	438.12
349.81	430.12
350.037	446.12
350.265	450.12
350.492	418.12
350.72	446.12
350.947	455.12
351.174	444.12
351.402	454.12
351.629	465.12
351.856	446.12
352.083	453.12
352.311	446.12
352.538	455.12
352.765	450.12
352.992	471.12
353.22	451.12
353.447	446.12
353.674	417.12
353.901	447.12
354.128	447.12
354.355	453.12
354.583	442.12
354.81	413.12
355.037	421.12
355.264	450.12
355.491	441.12
355.718	434.12
355.945	460.12
356.172	439.12
356.399	416.12
356.626	435.12
356.853	434.12
357.08	434.12
357.307	431.12
357.534	416.12
357.761	400.12
357.988	434.12
358.215	427.12
358.441	439.12
358.668	435.12
358.895	431.12
359.122	462.12
359.349	427.12
359.576	447.12
359.802	469.12
360.029	496.12
360.256	484.12
360.483	479.12
360.709	463.12
360.936	464.12
361.163	457.12
361.39	488.12
361.616	427.12
361.843	440.12
362.07	450.12
362.296	463.12
362.523	450.12
362.749	442.12
362.976	457.12
363.203	452.12
363.429	432.12
363.656	426.12
363.882	438.12
364.109	434.12
364.335	437.12
364.562	439.12
364.788	429.12
365.015	431.12
365.241	427.12
365.468	454.12
365.694	455.12
365.92	455.12
366.147	452.12
366.373	453.12
366.599	438.12
366.826	442.12
367.052	439.12
367.278	432.12
367.505	418.12
367.731	450.12
367.957	461.12
368.184	448.12
368.41	443.12
368.636	443.12
368.862	471.12
369.089	458.12
369.315	444.12
369.541	442.12
369.767	444.12
369.993	448.12
370.219	442.12
370.445	455.12
370.672	431.12
370.898	459.12
371.124	451.12
371.35	456.12
371.576	446.12
371.802	455.12
372.028	461.12
372.254	453.12
372.48	459.12
372.706	455.12
372.932	477.12
373.158	462.12
373.384	456.12
373.61	454.12
373.835	450.12
374.061	464.12
374.287	462.12
374.513	457.12
374.739	440.12
374.965	460.12
375.191	460.12
375.416	463.12
375.642	467.12
375.868	451.12
376.094	422.12
376.319	438.12
376.545	486.12
376.771	460.12
376.997	460.12
377.222	452.12
377.448	454.12
377.674	452.12
377.899	447.12
378.125	443.12
378.35	438.12
378.576	448.12
378.802	452.12
379.027	452.12
379.253	437.12
379.478	437.12
379.704	435.12
379.929	443.12
380.155	471.12
380.38	462.12
380.606	459.12
380.831	455.12
381.057	468.12
381.282	458.12
381.507	481.12
381.733	463.12
381.958	469.12
382.184	459.12
382.409	468.12
382.634	468.12
382.86	459.12
383.085	478.12
383.31	486.12
383.535	469.12
383.761	486.12
383.986	490.12
384.211	487.12
384.436	496.12
384.662	507.12
384.887	512.12
385.112	505.12
385.337	490.12
385.562	515.12
385.787	517.12
386.013	512.12
386.238	507.12
386.463	508.12
386.688	515.12
386.913	532.12
387.138	516.12
387.363	486.12
387.588	503.12
387.813	492.12
388.038	504.12
388.263	515.12
388.488	496.12
388.713	514.12
388.938	496.12
389.163	494.12
389.387	515.12
389.612	523.12
389.837	527.12
390.062	526.12
390.287	506.12
390.512	498.12
390.736	530.12
390.961	506.12
391.186	503.12
391.411	526.12
391.636	510.12
391.86	538.12
392.085	556.12
392.31	547.12
392.534	515.12
392.759	532.12
392.984	514.12
393.208	530.12
393.433	530.12
393.658	508.12
393.882	525.12
394.107	523.12
394.331	523.12
394.556	525.12
394.78	519.12
395.005	512.12
395.229	535.12
395.454	553.12
395.678	549.12
395.903	539.12
396.127	564.12
396.352	578.12
396.576	542.12
396.801	540.12
397.025	563.12
397.249	546.12
397.474	542.12
397.698	531.12
397.922	559.12
398.147	578.12
398.371	574.12
398.595	578.12
398.82	585.12
399.044	634.12
399.268	610.12
399.492	662.12
399.717	727.12
399.941	757.12
400.165	748.12
400.389	731.12
400.613	682.12
400.837	631.12
401.062	627.12
401.286	595.12
401.51	592.12
401.734	586.12
401.958	596.12
402.182	587.12
402.406	609.12
402.63	629.12
402.854	618.12
403.078	635.12
403.302	608.12
403.526	612.12
403.75	620.12
403.974	605.12
404.198	630.12
404.422	631.12
404.645	629.12
404.869	655.12
405.093	668.12
405.317	697.12
405.541	738.12
405.765	677.12
405.988	692.12
406.212	646.12
406.436	659.12
406.66	694.12
406.883	682.12
407.107	716.12
407.331	743.12
407.555	832.12
407.778	785.12
408.002	732.12
408.226	710.12
408.449	684.12
408.673	648.12
408.896	719.12
409.12	733.12
409.344	716.12
409.567	656.12
409.791	655.12
410.014	615.12
410.238	591.12
410.461	613.12
410.685	606.12
410.908	639.12
411.132	671.12
411.355	714.12
411.578	668.12
411.802	642.12
412.025	621.12
412.249	606.12
412.472	656.12
412.695	690.12
412.919	678.12
413.142	615.12
413.365	626.12
413.589	607.12
413.812	590.12
414.035	614.12
414.258	583.12
414.482	589.12
414.705	602.12
414.928	573.12
415.151	588.12
415.374	577.12
415.597	588.12
415.821	587.12
416.044	593.12
416.267	599.12
416.49	590.12
416.713	595.12
416.936	582.12
417.159	583.12
417.382	605.12
417.605	596.12
417.828	596.12
418.051	618.12
418.274	605.12
418.497	585.12
418.72	591.12
418.943	610.12
419.166	623.12
419.389	668.12
419.611	677.12
419.834	634.12
420.057	642.12
420.28	612.12
420.503	598.12
420.726	630.12
420.948	616.12
421.171	671.12
421.394	688.12
421.617	641.12
421.839	612.12
422.062	601.12
422.285	614.12
422.507	658.12
422.73	778.12
422.953	728.12
423.175	678.12
423.398	655.12
423.621	641.12
423.843	678.12
424.066	642.12
424.288	650.12
424.511	656.12
424.733	738.12
424.956	806.12
425.178	758.12
425.401	780.12
425.623	802.12
425.846	708.12
426.068	663.12
426.291	625.12
426.513	634.12
426.735	668.12
426.958	698.12
427.18	760.12
427.402	905.12
427.625	995.12
427.847	843.12
428.069	734.12
428.292	663.12
428.514	626.12
428.736	631.12
428.958	597.12
429.181	570.12
429.403	582.12
429.625	599.12
429.847	650.12
430.069	722.12
430.292	681.12
430.514	605.12
430.736	620.12
430.958	576.12
431.18	584.12
431.402	586.12
431.624	583.12
431.846	580.12
432.068	547.12
432.29	562.12
432.512	554.12
432.734	590.12
432.956	583.12
433.178	564.12
433.4	565.12
433.622	567.12
433.844	578.12
434.066	574.12
434.287	564.12
434.509	559.12
434.731	591.12
434.953	600.12
435.175	615.12
435.397	643.12
435.618	627.12
435.84	673.12
436.062	767.12
436.284	854.12
436.505	716.12
436.727	659.12
436.949	632.12
437.17	607.12
437.392	592.12
437.614	606.12
437.835	627.12
438.057	715.12
438.278	803.12
438.5	841.12
438.721	922.12
438.943	869.12
439.165	714.12
439.386	664.12
439.608	650.12
439.829	635.12
440.05	637.12
440.272	688.12
440.493	675.12
440.715	637.12
440.936	617.12
441.158	604.12
441.379	604.12
441.6	635.12
441.822	634.12
442.043	683.12
442.264	763.12
442.486	803.12
442.707	720.12
442.928	650.12
443.149	660.12
443.371	679.12
443.592	723.12
443.813	817.12
444.034	926.12
444.255	779.12
444.476	668.12
444.698	664.12
444.919	691.12
445.14	765.12
445.361	712.12
445.582	711.12
445.803	755.12
446.024	808.12
446.245	846.12
446.466	802.12
446.687	692.12
446.908	639.12
447.129	601.12
447.35	608.12
447.571	590.12
447.792	586.12
448.013	600.12
448.234	590.12
448.455	645.12
448.675	774.12
448.896	903.12
449.117	760.12
449.338	742.12
449.559	814.12
449.779	958.12
450	758.12
450.221	619.12
450.442	593.12
450.662	579.12
450.883	570.12
451.104	594.12
451.324	584.12
451.545	554.12
451.766	546.12
451.986	528.12
452.207	520.12
452.428	531.12
452.648	543.12
452.869	533.12
453.089	544.12
453.31	534.12
453.53	522.12
453.751	512.12
453.971	516.12
454.192	528.12
454.412	524.12
454.633	508.12
454.853	520.12
455.073	532.12
455.294	545.12
455.514	634.12
455.734	609.12
455.955	532.12
456.175	526.12
456.395	531.12
456.616	498.12
456.836	497.12
457.056	515.12
457.276	504.12
457.497	498.12
457.717	475.12
457.937	502.12
458.157	505.12
458.377	525.12
458.598	541.12
458.818	580.12
459.038	642.12
459.258	683.12
459.478	620.12
459.698	584.12
459.918	581.12
460.138	579.12
460.358	578.12
460.578	576.12
460.798	607.12
461.018	627.12
461.238	614.12
461.458	620.12
461.678	591.12
461.898	580.12
462.118	602.12
462.338	605.12
462.558	618.12
462.777	627.12
462.997	654.12
463.217	668.12
463.437	675.12
463.657	678.12
463.876	654.12
464.096	640.12
464.316	630.12
464.536	626.12
464.755	671.12
464.975	638.12
465.195	646.12
465.414	671.12
465.634	660.12
465.854	594.12
466.073	566.12
466.293	572.12
466.512	540.12
466.732	546.12
466.951	552.12
467.171	546.12
467.391	552.12
467.61	580.12
467.829	557.12
468.049	564.12
468.268	559.12
468.488	532.12
468.707	538.12
468.927	503.12
469.146	548.12
469.365	543.12
469.585	550.12
469.804	557.12
470.023	574.12
470.243	541.12
470.462	559.12
470.681	580.12
470.901	554.12
471.12	549.12
471.339	542.12
471.558	547.12
471.777	570.12
471.997	534.12
472.216	589.12
472.435	590.12
472.654	572.12
472.873	556.12
473.092	527.12
473.311	553.12
473.53	548.12
473.749	571.12
473.968	591.12
474.187	654.12
474.406	696.12
474.625	617.12
474.844	566.12
475.063	576.12
475.282	542.12
475.501	550.12
475.72	577.12
475.939	568.12
476.158	585.12
476.377	555.12
476.596	555.12
476.814	578.12
477.033	594.12
477.252	568.12
477.471	603.12
477.69	586.12
477.908	613.12
478.127	609.12
478.346	603.12
478.564	637.12
478.783	624.12
479.002	654.12
479.22	634.12
479.439	657.12
479.658	659.12
479.876	663.12
480.095	661.12
480.313	723.12
480.532	690.12
480.751	680.12
480.969	699.12
481.188	726.12
481.406	764.12
481.624	676.12
481.843	671.12
482.061	658.12
482.28	663.12
482.498	642.12
482.717	624.12
482.935	639.12
483.153	644.12
483.372	664.12
483.59	651.12
483.808	636.12
484.027	639.12
484.245	646.12
484.463	647.12
484.681	650.12
484.9	669.12
485.118	648.12
485.336	664.12
485.554	658.12
485.772	664.12
485.99	642.12
486.209	680.12
486.427	671.12
486.645	680.12
486.863	706.12
487.081	700.12
487.299	686.12
487.517	712.12
487.735	687.12
487.953	679.12
488.171	720.12
488.389	694.12
488.607	678.12
488.825	693.12
489.043	707.12
489.261	715.12
489.479	700.12
489.696	725.12
489.914	711.12
490.132	732.12
490.35	694.12
490.568	719.12
490.786	731.12
491.003	749.12
491.221	750.12
491.439	736.12
491.657	787.12
491.874	781.12
492.092	793.12
492.31	809.12
492.527	799.12
492.745	816.12
492.963	810.12
493.18	788.12
493.398	820.12
493.615	822.12
493.833	826.12
494.05	850.12
494.268	809.12
494.485	818.12
494.703	815.12
494.92	838.12
495.138	783.12
495.355	834.12
495.573	837.12
495.79	830.12
496.008	830.12
496.225	838.12
496.442	827.12
496.66	832.12
496.877	851.12
497.094	822.12
497.312	870.12
497.529	875.12
497.746	867.12
497.963	892.12
498.181	918.12
498.398	907.12
498.615	951.12
498.832	952.12
499.049	994.12
499.267	1000.12
499.484	1076.12
499.701	1104.12
499.918	1155.12
500.135	1267.12
500.352	1291.12
500.569	1360.12
500.786	1331.12
501.003	1270.12
501.22	1219.12
501.437	1194.12
501.654	1151.12
501.871	1087.12
502.088	1052.12
502.305	999.12
502.522	958.12
502.739	960.12
502.956	904.12
503.172	883.12
503.389	902.12
503.606	887.12
503.823	855.12
504.04	879.12
504.256	852.12
504.473	853.12
504.69	810.12
504.907	832.12
505.123	839.12
505.34	802.12
505.557	812.12
505.773	800.12
505.99	787.12
506.207	772.12
506.423	761.12
506.64	799.12
506.856	770.12
507.073	757.12
507.289	758.12
507.506	742.12
507.722	744.12
507.939	763.12
508.155	728.12
508.372	728.12
508.588	743.12
508.805	703.12
509.021	733.12
509.238	739.12
509.454	741.12
509.67	729.12
509.887	731.12
510.103	717.12
510.319	701.12
510.536	810.12
510.752	1149.12
510.968	964.12
511.184	714.12
511.401	671.12
511.617	694.12
511.833	704.12
512.049	670.12
512.265	694.12
512.481	696.12
512.698	665.12
512.914	660.12
513.13	657.12
513.346	664.12
513.562	678.12
513.778	688.12
513.994	669.12
514.21	685.12
514.426	699.12
514.642	733.12
514.858	747.12
515.074	779.12
515.29	869.12
515.506	1119.12
515.721	1013.12
515.937	776.12
516.153	722.12
516.369	742.12
516.585	690.12
516.801	730.12
517.016	715.12
517.232	724.12
517.448	747.12
517.664	741.12
517.879	730.12
518.095	744.12
518.311	759.12
518.527	716.12
518.742	704.12
518.958	707.12
519.173	704.12
519.389	684.12
519.605	678.12
519.82	697.12
520.036	686.12
520.251	710.12
520.467	719.12
520.682	712.12
520.898	697.12
521.113	740.12
521.329	741.12
521.544	798.12
521.76	949.12
521.975	1368.12
522.19	1386.12
522.406	888.12
522.621	718.12
522.836	670.12
523.052	651.12
523.267	638.12
523.482	616.12
523.698	620.12
523.913	642.12
524.128	627.12
524.343	595.12
524.559	601.12
524.774	590.12
524.989	596.12
525.204	597.12
525.419	635.12
525.634	579.12
525.849	582.12
526.064	585.12
526.28	583.12
526.495	567.12
526.71	587.12
526.925	568.12
527.14	567.12
527.355	583.12
527.57	566.12
527.785	574.12
527.999	571.12
528.214	587.12
528.429	565.12
528.644	572.12
528.859	559.12
529.074	572.12
529.289	603.12
529.503	628.12
529.718	626.12
529.933	565.12
530.148	584.12
530.363	579.12
530.577	557.12
530.792	528.12
531.007	542.12
531.221	572.12
531.436	551.12
531.651	540.12
531.865	549.12
532.08	544.12
532.295	546.12
532.509	554.12
532.724	566.12
532.938	526.12
533.153	561.12
533.367	585.12
533.582	554.12
533.796	559.12
534.011	528.12
534.225	537.12
534.44	526.12
534.654	537.12
534.868	543.12
535.083	548.12
535.297	555.12
535.511	545.12
535.726	557.12
535.94	541.12
536.154	531.12
536.369	516.12
536.583	534.12
536.797	554.12
537.011	532.12
537.225	517.12
537.44	537.12
537.654	535.12
537.868	503.12
538.082	524.12
538.296	524.12
538.51	544.12
538.724	530.12
538.938	538.12
539.153	519.12
539.367	518.12
539.581	522.12
539.795	526.12
540.009	526.12
540.222	529.12
540.436	516.12
540.65	544.12
540.864	507.12
541.078	542.12
541.292	524.12
541.506	546.12
541.72	507.12
541.934	514.12
542.147	524.12
542.361	521.12
542.575	514.12
542.789	503.12
543.002	520.12
543.216	528.12
543.43	520.12
543.644	505.12
543.857	514.12
544.071	520.12
544.285	546.12
544.498	520.12
544.712	529.12
544.925	538.12
545.139	522.12
545.352	530.12
545.566	511.12
545.779	523.12
545.993	534.12
546.206	520.12
546.42	514.12
546.633	520.12
546.847	533.12
547.06	503.12
547.274	512.12
547.487	505.12
547.7	522.12
547.914	496.12
548.127	520.12
548.34	520.12
548.554	519.12
548.767	541.12
548.98	498.12
549.193	515.12
549.407	509.12
549.62	518.12
549.833	506.12
550.046	512.12
550.259	532.12
550.473	528.12
550.686	513.12
550.899	495.12
551.112	493.12
551.325	508.12
551.538	496.12
551.751	500.12
551.964	489.12
552.177	509.12
552.39	496.12
552.603	522.12
552.816	522.12
553.029	519.12
553.242	520.12
553.455	534.12
553.667	552.12
553.88	547.12
554.093	514.12
554.306	517.12
554.519	519.12
554.732	499.12
554.944	516.12
555.157	524.12
555.37	470.12
555.583	482.12
555.795	491.12
556.008	479.12
556.221	482.12
556.433	468.12
556.646	470.12
556.859	478.12
557.071	451.12
557.284	453.12
557.496	472.12
557.709	464.12
557.921	452.12
558.134	454.12
558.346	458.12
558.559	462.12
558.771	463.12
558.984	448.12
559.196	446.12
559.409	453.12
559.621	440.12
559.833	452.12
560.046	452.12
560.258	448.12
560.47	433.12
560.683	439.12
560.895	448.12
561.107	441.12
561.32	462.12
561.532	451.12
561.744	433.12
561.956	441.12
562.168	458.12
562.381	444.12
562.593	471.12
562.805	441.12
563.017	467.12
563.229	445.12
563.441	463.12
563.653	472.12
563.865	460.12
564.077	445.12
564.289	482.12
564.501	481.12
564.713	455.12
564.925	474.12
565.137	492.12
565.349	468.12
565.561	503.12
565.773	508.12
565.985	515.12
566.197	549.12
566.408	557.12
566.62	567.12
566.832	596.12
567.044	596.12
567.255	595.12
567.467	593.12
567.679	614.12
567.891	654.12
568.102	635.12
568.314	628.12
568.526	594.12
568.737	570.12
568.949	547.12
569.161	503.12
569.372	484.12
569.584	486.12
569.795	484.12
570.007	461.12
570.218	490.12
570.43	486.12
570.641	455.12
570.853	428.12
571.064	442.12
571.276	446.12
571.487	453.12
571.698	433.12
571.91	418.12
572.121	435.12
572.333	423.12
572.544	414.12
572.755	392.12
572.966	411.12
573.178	410.12
573.389	373.12
573.6	400.12
573.811	384.12
574.023	393.12
574.234	392.12
574.445	408.12
574.656	390.12
574.867	403.12
575.078	382.12
575.289	380.12
575.501	404.12
575.712	384.12
575.923	362.12
576.134	370.12
576.345	372.12
576.556	361.12
576.767	364.12
576.978	354.12
577.188	376.12
577.399	380.12
577.61	355.12
577.821	374.12
578.032	350.12
578.243	400.12
578.454	524.12
578.665	438.12
578.875	372.12
579.086	365.12
579.297	348.12
579.508	372.12
579.718	354.12
579.929	344.12
580.14	363.12
580.35	344.12
580.561	340.12
580.772	338.12
580.982	343.12
581.193	335.12
581.403	335.12
581.614	356.12
581.825	340.12
582.035	355.12
582.246	349.12
582.456	361.12
582.667	366.12
582.877	329.12
583.087	348.12
583.298	344.12
583.508	318.12
583.719	325.12
583.929	339.12
584.139	363.12
584.35	330.12
584.56	352.12
584.77	350.12
584.981	335.12
585.191	355.12
585.401	346.12
585.611	336.12
585.821	340.12
586.032	331.12
586.242	341.12
586.452	338.12
586.662	350.12
586.872	344.12
587.082	351.12
587.292	327.12
587.502	334.12
587.713	330.12
587.923	345.12
588.133	323.12
588.343	350.12
588.553	348.12
588.762	340.12
588.972	344.12
589.182	340.12
589.392	342.12
589.602	336.12
589.812	337.12
590.022	331.12
590.232	336.12
590.441	342.12
590.651	344.12
590.861	343.12
591.071	328.12
591.281	345.12
591.49	336.12
591.7	350.12
591.91	353.12
592.119	340.12
592.329	334.12
592.539	364.12
592.748	375.12
592.958	373.12
593.167	344.12
593.377	373.12
593.587	380.12
593.796	395.12
594.006	377.12
594.215	382.12
594.424	387.12
594.634	382.12
594.843	359.12
595.053	378.12
595.262	364.12
595.472	351.12
595.681	339.12
595.89	354.12
596.1	350.12
596.309	343.12
596.518	310.12
596.727	320.12
596.937	343.12
597.146	323.12
597.355	319.12
597.564	301.12
597.774	324.12
597.983	312.12
598.192	316.12
598.401	308.12
598.61	287.12
598.819	298.12
599.028	301.12
599.237	289.12
599.446	292.12
599.655	296.12
599.864	286.12
600.073	283.12
600.282	313.12
600.491	303.12
600.7	295.12
600.909	291.12
601.118	286.12
601.327	297.12
601.536	299.12
601.745	282.12
601.953	290.12
602.162	286.12
602.371	286.12
602.58	278.12
602.789	299.12
602.997	280.12
603.206	297.12
603.415	282.12
603.623	295.12
603.832	294.12
604.041	281.12
604.249	279.12
604.458	281.12
604.666	284.12
604.875	280.12
605.084	281.12
605.292	280.12
605.501	290.12
605.709	283.12
605.918	286.12
606.126	294.12
606.334	286.12
606.543	295.12
606.751	277.12
606.96	284.12
607.168	279.12
607.376	273.12
607.585	288.12
607.793	281.12
608.001	284.12
608.21	279.12
608.418	274.12
608.626	272.12
608.834	286.12
609.043	293.12
609.251	283.12
609.459	271.12
609.667	282.12
609.875	284.12
610.083	272.12
610.291	293.12
610.499	274.12
610.707	287.12
610.916	269.12
611.124	298.12
611.332	294.12
611.54	300.12
611.748	298.12
611.955	287.12
612.163	283.12
612.371	282.12
612.579	260.12
612.787	263.12
612.995	258.12
613.203	275.12
613.411	270.12
613.618	265.12
613.826	263.12
614.034	284.12
614.242	298.12
614.449	270.12
614.657	285.12
614.865	280.12
615.072	264.12
615.28	272.12
615.488	275.12
615.695	285.12
615.903	262.12
616.111	267.12
616.318	277.12
616.526	272.12
616.733	268.12
616.941	296.12
617.148	262.12
617.356	276.12
617.563	248.12
617.771	266.12
617.978	267.12
618.185	261.12
618.393	279.12
618.6	261.12
618.807	271.12
619.015	274.12
619.222	270.12
619.429	256.12
619.637	257.12
619.844	272.12
620.051	260.12
620.258	266.12
620.466	255.12
620.673	258.12
620.88	246.12
621.087	222.12
621.294	256.12
621.501	248.12
621.708	253.12
621.915	266.12
622.122	239.12
622.329	250.12
622.536	242.12
622.743	246.12
622.95	261.12
623.157	244.12
623.364	250.12
623.571	253.12
623.778	242.12
623.985	244.12
624.192	246.12
624.399	243.12
624.606	231.12
624.812	228.12
625.019	237.12
625.226	239.12
625.433	242.12
625.639	221.12
625.846	235.12
626.053	246.12
626.259	248.12
626.466	231.12
626.673	233.12
626.879	226.12
627.086	225.12
627.293	238.12
627.499	244.12
627.706	222.12
627.912	231.12
628.119	221.12
628.325	242.12
628.532	235.12
628.738	219.12
628.945	234.12
629.151	222.12
629.357	250.12
629.564	220.12
629.77	242.12
629.976	225.12
630.183	226.12
630.389	217.12
630.595	216.12
630.802	221.12
631.008	204.12
631.214	234.12
631.42	242.12
631.627	223.12
631.833	222.12
632.039	210.12
632.245	214.12
632.451	238.12
632.657	208.12
632.863	217.12
633.069	195.12
633.275	206.12
633.481	223.12
633.688	209.12
633.893	198.12
634.099	208.12
634.305	207.12
634.511	211.12
634.717	206.12
634.923	206.12
635.129	197.12
635.335	215.12
635.541	199.12
635.747	206.12
635.952	196.12
636.158	207.12
636.364	192.12
636.57	216.12
636.775	198.12
636.981	216.12
637.187	207.12
637.392	200.12
637.598	203.12
637.804	202.12
638.009	193.12
638.215	208.12
638.421	205.12
638.626	185.12
638.832	190.12
639.037	181.12
639.243	170.12
639.448	190.12
639.654	179.12
639.859	213.12
640.065	191.12
640.27	192.12
640.475	189.12
640.681	202.12
640.886	202.12
641.091	210.12
641.297	201.12
641.502	181.12
641.707	184.12
641.913	198.12
642.118	197.12
642.323	189.12
642.528	195.12
642.733	207.12
642.939	206.12
643.144	192.12
643.349	196.12
643.554	190.12
643.759	180.12
643.964	194.12
644.169	186.12
644.374	194.12
644.579	194.12
644.784	189.12
644.989	183.12
645.194	185.12
645.399	186.12
645.604	187.12
645.809	160.12
646.014	178.12
646.219	173.12
646.423	190.12
646.628	204.12
646.833	191.12
647.038	187.12
647.243	196.12
647.447	178.12
647.652	171.12
647.857	188.12
648.062	203.12
648.266	181.12
648.471	187.12
648.676	179.12
648.88	192.12
649.085	184.12
649.289	179.12
649.494	180.12
649.698	202.12
649.903	190.12
650.107	182.12
650.312	167.12
650.516	182.12
650.721	181.12
650.925	174.12
651.13	165.12
651.334	168.12
651.539	151.12
651.743	174.12
651.947	192.12
652.152	174.12
652.356	162.12
652.56	143.12
652.764	154.12
652.969	150.12
653.173	161.12
653.377	147.12
653.581	143.12
653.785	143.12
653.99	151.12
654.194	138.12
654.398	160.12
654.602	162.12
654.806	148.12
655.01	152.12
655.214	147.12
655.418	142.12
655.622	146.12
655.826	147.12
656.03	155.12
656.234	143.12
656.438	159.12
656.642	137.12
656.846	137.12
657.049	129.12
657.253	142.12
657.457	125.12
657.661	119.12
657.865	109.12
658.068	115.12
658.272	107.12
658.476	108.12
658.68	127.12
658.883	101.12
659.087	120.12
659.291	112.12
659.494	112.12
659.698	96.12
659.901	96.12
660.105	102.12
660.309	109.12
660.512	93.12
660.716	100.12
660.919	97.12
661.123	90.12
661.326	87.12
661.53	85.12
661.733	95.12
661.936	84.12
662.14	102.12
662.343	90.12
662.546	86.12
662.75	105.12
662.953	85.12
663.156	92.12
663.36	76.12
663.563	94.12
663.766	91.12
663.969	93.12
664.173	81.12
664.376	91.12
664.579	87.12
664.782	83.12
664.985	85.12
665.188	76.12
665.391	99.12
665.594	79.12
665.797	83.12
666	79.12
666.203	95.12
666.406	87.12
666.609	86.12
666.812	93.12
667.015	97.12
667.218	83.12
667.421	83.12
667.624	86.12
667.827	78.12
668.03	74.12
668.232	80.12
668.435	88.12
668.638	85.12
668.841	80.12
669.043	77.12
669.246	76.12
669.449	83.12
669.651	86.12
669.854	91.12
670.057	78.12
670.259	79.12
670.462	86.12
670.665	86.12
670.867	79.12
671.07	77.12
671.272	87.12
671.475	90.12
671.677	89.12
671.88	90.12
672.082	96.12
672.284	88.12
672.487	80.12
672.689	70.12
672.892	86.12
