Data from 1974.PennyLincolnUp.Lamp.En5.5.200Scan.071719.P1.Changed Mount._HRD10591_15-52-44-856.txt Node
Date: Thu Jul 18 15:52:44 EDT 2019
User: cochatt
Spectrometer: HR+D1059
Trigger mode: 1
Integration Time (sec): 1.000000E-1
Scans to average: 1
Electric dark correction enabled: true
Nonlinearity correction enabled: false
Boxcar width: 0
XAxis mode: Wavelengths
Number of Pixels in Spectrum: 2048
>>>>>Begin Spectral Data<<<<<
223.165	-7.69
223.4	-7.69
223.635	-7.69
223.869	-11.69
224.104	-33.69
224.338	-9.69
224.573	-14.69
224.808	-13.69
225.042	0.31
225.277	2.31
225.511	5.31
225.746	3.31
225.98	-1.69
226.215	-0.69
226.449	18.31
226.683	12.31
226.918	24.31
227.152	27.31
227.387	27.31
227.621	41.31
227.856	35.31
228.09	46.31
228.324	60.31
228.559	51.31
228.793	66.31
229.027	101.31
229.262	107.31
229.496	111.31
229.73	128.31
229.964	151.31
230.199	134.31
230.433	122.31
230.667	118.31
230.901	114.31
231.136	121.31
231.37	118.31
231.604	102.31
231.838	124.31
232.072	120.31
232.306	113.31
232.541	122.31
232.775	117.31
233.009	105.31
233.243	107.31
233.477	122.31
233.711	120.31
233.945	118.31
234.179	123.31
234.413	116.31
234.647	131.31
234.881	123.31
235.115	126.31
235.349	112.31
235.583	100.31
235.817	122.31
236.051	142.31
236.285	138.31
236.519	121.31
236.753	132.31
236.987	152.31
237.221	186.31
237.455	219.31
237.689	193.31
237.922	142.31
238.156	127.31
238.39	132.31
238.624	133.31
238.858	148.31
239.091	124.31
239.325	122.31
239.559	137.31
239.793	135.31
240.027	141.31
240.26	153.31
240.494	166.31
240.728	142.31
240.961	154.31
241.195	156.31
241.429	157.31
241.662	150.31
241.896	148.31
242.13	129.31
242.363	152.31
242.597	165.31
242.83	149.31
243.064	157.31
243.298	138.31
243.531	140.31
243.765	149.31
243.998	150.31
244.232	146.31
244.465	148.31
244.699	153.31
244.932	157.31
245.166	159.31
245.399	169.31
245.633	150.31
245.866	144.31
246.099	168.31
246.333	177.31
246.566	162.31
246.8	154.31
247.033	169.31
247.266	173.31
247.5	180.31
247.733	179.31
247.966	182.31
248.2	184.31
248.433	200.31
248.666	165.31
248.899	205.31
249.133	216.31
249.366	206.31
249.599	212.31
249.832	203.31
250.066	182.31
250.299	182.31
250.532	198.31
250.765	211.31
250.998	217.31
251.231	234.31
251.465	236.31
251.698	208.31
251.931	207.31
252.164	205.31
252.397	205.31
252.63	209.31
252.863	204.31
253.096	230.31
253.329	236.31
253.562	246.31
253.795	235.31
254.028	237.31
254.261	227.31
254.494	229.31
254.727	267.31
254.96	278.31
255.193	304.31
255.426	270.31
255.659	245.31
255.892	257.31
256.124	248.31
256.357	247.31
256.59	242.31
256.823	216.31
257.056	217.31
257.289	219.31
257.521	222.31
257.754	231.31
257.987	232.31
258.22	215.31
258.452	212.31
258.685	221.31
258.918	207.31
259.151	224.31
259.383	232.31
259.616	217.31
259.849	225.31
260.081	242.31
260.314	253.31
260.547	266.31
260.779	274.31
261.012	237.31
261.244	234.31
261.477	236.31
261.71	229.31
261.942	253.31
262.175	270.31
262.407	240.31
262.64	230.31
262.872	211.31
263.105	232.31
263.337	229.31
263.57	215.31
263.802	240.31
264.035	245.31
264.267	234.31
264.499	226.31
264.732	220.31
264.964	227.31
265.197	244.31
265.429	233.31
265.661	249.31
265.894	252.31
266.126	238.31
266.358	244.31
266.591	216.31
266.823	240.31
267.055	231.31
267.287	238.31
267.52	226.31
267.752	253.31
267.984	249.31
268.216	247.31
268.448	261.31
268.681	261.31
268.913	247.31
269.145	272.31
269.377	278.31
269.609	293.31
269.841	293.31
270.073	285.31
270.306	287.31
270.538	319.31
270.77	322.31
271.002	312.31
271.234	287.31
271.466	317.31
271.698	325.31
271.93	325.31
272.162	347.31
272.394	311.31
272.626	315.31
272.858	299.31
273.09	283.31
273.322	290.31
273.553	288.31
273.785	291.31
274.017	288.31
274.249	282.31
274.481	264.31
274.713	260.31
274.945	287.31
275.176	277.31
275.408	266.31
275.64	286.31
275.872	281.31
276.104	291.31
276.335	286.31
276.567	298.31
276.799	297.31
277.031	301.31
277.262	329.31
277.494	341.31
277.726	332.31
277.957	308.31
278.189	291.31
278.421	310.31
278.652	319.31
278.884	286.31
279.115	284.31
279.347	288.31
279.579	295.31
279.81	286.31
280.042	268.31
280.273	285.31
280.505	288.31
280.736	287.31
280.968	281.31
281.199	288.31
281.431	307.31
281.662	284.31
281.894	302.31
282.125	302.31
282.356	310.31
282.588	317.31
282.819	321.31
283.051	297.31
283.282	304.31
283.513	313.31
283.745	290.31
283.976	321.31
284.207	297.31
284.439	290.31
284.67	305.31
284.901	297.31
285.132	291.31
285.364	309.31
285.595	310.31
285.826	312.31
286.057	314.31
286.288	289.31
286.52	332.31
286.751	308.31
286.982	309.31
287.213	305.31
287.444	309.31
287.675	298.31
287.906	321.31
288.138	341.31
288.369	325.31
288.6	326.31
288.831	305.31
289.062	325.31
289.293	315.31
289.524	309.31
289.755	319.31
289.986	313.31
290.217	325.31
290.448	320.31
290.679	321.31
290.91	335.31
291.141	328.31
291.371	296.31
291.602	314.31
291.833	314.31
292.064	297.31
292.295	325.31
292.526	316.31
292.757	306.31
292.987	307.31
293.218	300.31
293.449	326.31
293.68	324.31
293.91	333.31
294.141	318.31
294.372	302.31
294.603	328.31
294.833	335.31
295.064	324.31
295.295	327.31
295.525	328.31
295.756	321.31
295.987	353.31
296.217	348.31
296.448	340.31
296.679	340.31
296.909	344.31
297.14	325.31
297.37	316.31
297.601	341.31
297.831	329.31
298.062	329.31
298.292	337.31
298.523	345.31
298.753	346.31
298.984	351.31
299.214	341.31
299.445	330.31
299.675	326.31
299.905	361.31
300.136	346.31
300.366	348.31
300.597	342.31
300.827	347.31
301.057	358.31
301.288	357.31
301.518	361.31
301.748	344.31
301.979	344.31
302.209	358.31
302.439	364.31
302.669	349.31
302.9	346.31
303.13	342.31
303.36	349.31
303.59	369.31
303.82	356.31
304.051	373.31
304.281	368.31
304.511	360.31
304.741	352.31
304.971	365.31
305.201	351.31
305.431	364.31
305.661	364.31
305.891	366.31
306.121	355.31
306.352	380.31
306.582	384.31
306.812	373.31
307.042	372.31
307.272	376.31
307.502	357.31
307.731	361.31
307.961	361.31
308.191	364.31
308.421	383.31
308.651	370.31
308.881	350.31
309.111	355.31
309.341	365.31
309.571	373.31
309.8	396.31
310.03	366.31
310.26	375.31
310.49	390.31
310.72	394.31
310.949	411.31
311.179	410.31
311.409	405.31
311.639	413.31
311.868	369.31
312.098	389.31
312.328	398.31
312.557	407.31
312.787	409.31
313.017	443.31
313.246	415.31
313.476	412.31
313.706	393.31
313.935	384.31
314.165	425.31
314.394	401.31
314.624	414.31
314.853	409.31
315.083	419.31
315.312	388.31
315.542	393.31
315.771	408.31
316.001	402.31
316.23	385.31
316.46	391.31
316.689	429.31
316.919	398.31
317.148	414.31
317.377	418.31
317.607	419.31
317.836	405.31
318.065	397.31
318.295	398.31
318.524	396.31
318.753	398.31
318.983	410.31
319.212	390.31
319.441	412.31
319.67	429.31
319.9	418.31
320.129	414.31
320.358	422.31
320.587	427.31
320.816	424.31
321.046	418.31
321.275	437.31
321.504	432.31
321.733	421.31
321.962	416.31
322.191	441.31
322.42	436.31
322.649	450.31
322.878	457.31
323.108	477.31
323.337	491.31
323.566	511.31
323.795	497.31
324.024	551.31
324.253	634.31
324.482	843.31
324.71	1254.31
324.939	1816.31
325.168	1610.31
325.397	836.31
325.626	607.31
325.855	536.31
326.084	503.31
326.313	488.31
326.542	502.31
326.77	540.31
326.999	627.31
327.228	774.31
327.457	1138.31
327.686	1380.31
327.914	965.31
328.143	670.31
328.372	582.31
328.6	566.31
328.829	550.31
329.058	537.31
329.287	565.31
329.515	533.31
329.744	507.31
329.972	516.31
330.201	544.31
330.43	564.31
330.658	563.31
330.887	597.31
331.115	581.31
331.344	525.31
331.572	500.31
331.801	503.31
332.03	506.31
332.258	522.31
332.486	504.31
332.715	504.31
332.943	484.31
333.172	514.31
333.4	485.31
333.629	509.31
333.857	509.31
334.085	526.31
334.314	531.31
334.542	567.31
334.771	579.31
334.999	517.31
335.227	502.31
335.455	493.31
335.684	500.31
335.912	511.31
336.14	473.31
336.369	500.31
336.597	489.31
336.825	496.31
337.053	506.31
337.281	501.31
337.51	493.31
337.738	469.31
337.966	479.31
338.194	474.31
338.422	490.31
338.65	471.31
338.878	468.31
339.106	443.31
339.334	474.31
339.562	456.31
339.79	461.31
340.018	472.31
340.246	456.31
340.474	463.31
340.702	465.31
340.93	455.31
341.158	458.31
341.386	487.31
341.614	457.31
341.842	461.31
342.07	484.31
342.298	464.31
342.526	450.31
342.754	458.31
342.981	464.31
343.209	466.31
343.437	473.31
343.665	471.31
343.893	504.31
344.12	501.31
344.348	514.31
344.576	482.31
344.804	481.31
345.031	485.31
345.259	473.31
345.487	467.31
345.714	466.31
345.942	460.31
346.17	454.31
346.397	477.31
346.625	475.31
346.853	459.31
347.08	437.31
347.308	458.31
347.535	464.31
347.763	471.31
347.99	454.31
348.218	451.31
348.445	474.31
348.673	473.31
348.9	444.31
349.128	461.31
349.355	443.31
349.583	438.31
349.81	445.31
350.037	435.31
350.265	437.31
350.492	454.31
350.72	437.31
350.947	462.31
351.174	454.31
351.402	458.31
351.629	460.31
351.856	474.31
352.083	455.31
352.311	460.31
352.538	472.31
352.765	466.31
352.992	463.31
353.22	454.31
353.447	450.31
353.674	459.31
353.901	464.31
354.128	441.31
354.355	450.31
354.583	441.31
354.81	437.31
355.037	428.31
355.264	426.31
355.491	415.31
355.718	450.31
355.945	429.31
356.172	434.31
356.399	443.31
356.626	447.31
356.853	434.31
357.08	445.31
357.307	426.31
357.534	421.31
357.761	426.31
357.988	437.31
358.215	432.31
358.441	423.31
358.668	418.31
358.895	448.31
359.122	429.31
359.349	470.31
359.576	446.31
359.802	466.31
360.029	493.31
360.256	512.31
360.483	473.31
360.709	456.31
360.936	464.31
361.163	456.31
361.39	464.31
361.616	472.31
361.843	466.31
362.07	470.31
362.296	443.31
362.523	437.31
362.749	460.31
362.976	438.31
363.203	455.31
363.429	432.31
363.656	445.31
363.882	440.31
364.109	460.31
364.335	455.31
364.562	443.31
364.788	430.31
365.015	452.31
365.241	441.31
365.468	434.31
365.694	448.31
365.92	465.31
366.147	430.31
366.373	438.31
366.599	424.31
366.826	449.31
367.052	452.31
367.278	440.31
367.505	454.31
367.731	436.31
367.957	456.31
368.184	436.31
368.41	479.31
368.636	475.31
368.862	471.31
369.089	457.31
369.315	445.31
369.541	438.31
369.767	462.31
369.993	453.31
370.219	442.31
370.445	453.31
370.672	455.31
370.898	465.31
371.124	458.31
371.35	448.31
371.576	473.31
371.802	456.31
372.028	463.31
372.254	452.31
372.48	450.31
372.706	462.31
372.932	462.31
373.158	490.31
373.384	475.31
373.61	486.31
373.835	472.31
374.061	448.31
374.287	462.31
374.513	445.31
374.739	465.31
374.965	498.31
375.191	462.31
375.416	476.31
375.642	478.31
375.868	464.31
376.094	472.31
376.319	466.31
376.545	474.31
376.771	457.31
376.997	461.31
377.222	456.31
377.448	462.31
377.674	454.31
377.899	445.31
378.125	437.31
378.35	460.31
378.576	449.31
378.802	449.31
379.027	451.31
379.253	463.31
379.478	433.31
379.704	489.31
379.929	448.31
380.155	442.31
380.38	450.31
380.606	457.31
380.831	462.31
381.057	466.31
381.282	464.31
381.507	449.31
381.733	455.31
381.958	468.31
382.184	474.31
382.409	480.31
382.634	494.31
382.86	466.31
383.085	477.31
383.31	465.31
383.535	477.31
383.761	484.31
383.986	491.31
384.211	477.31
384.436	483.31
384.662	484.31
384.887	478.31
385.112	504.31
385.337	500.31
385.562	506.31
385.787	531.31
386.013	512.31
386.238	493.31
386.463	520.31
386.688	499.31
386.913	512.31
387.138	525.31
387.363	520.31
387.588	501.31
387.813	514.31
388.038	512.31
388.263	520.31
388.488	526.31
388.713	500.31
388.938	506.31
389.163	506.31
389.387	530.31
389.612	484.31
389.837	514.31
390.062	521.31
390.287	519.31
390.512	514.31
390.736	496.31
390.961	530.31
391.186	522.31
391.411	520.31
391.636	533.31
391.86	532.31
392.085	557.31
392.31	532.31
392.534	550.31
392.759	520.31
392.984	496.31
393.208	532.31
393.433	522.31
393.658	511.31
393.882	538.31
394.107	528.31
394.331	525.31
394.556	531.31
394.78	516.31
395.005	544.31
395.229	526.31
395.454	566.31
395.678	562.31
395.903	569.31
396.127	553.31
396.352	578.31
396.576	534.31
396.801	567.31
397.025	544.31
397.249	566.31
397.474	544.31
397.698	528.31
397.922	560.31
398.147	574.31
398.371	594.31
398.595	575.31
398.82	586.31
399.044	619.31
399.268	632.31
399.492	711.31
399.717	760.31
399.941	768.31
400.165	769.31
400.389	737.31
400.613	650.31
400.837	658.31
401.062	623.31
401.286	633.31
401.51	614.31
401.734	595.31
401.958	614.31
402.182	600.31
402.406	571.31
402.63	596.31
402.854	632.31
403.078	611.31
403.302	616.31
403.526	624.31
403.75	648.31
403.974	606.31
404.198	642.31
404.422	640.31
404.645	659.31
404.869	660.31
405.093	669.31
405.317	705.31
405.541	769.31
405.765	707.31
405.988	679.31
406.212	677.31
406.436	678.31
406.66	681.31
406.883	701.31
407.107	704.31
407.331	749.31
407.555	836.31
407.778	840.31
408.002	752.31
408.226	702.31
408.449	687.31
408.673	674.31
408.896	706.31
409.12	741.31
409.344	710.31
409.567	640.31
409.791	679.31
410.014	621.31
410.238	621.31
410.461	635.31
410.685	617.31
410.908	643.31
411.132	676.31
411.355	705.31
411.578	692.31
411.802	634.31
412.025	620.31
412.249	629.31
412.472	666.31
412.695	710.31
412.919	681.31
413.142	626.31
413.365	614.31
413.589	612.31
413.812	613.31
414.035	594.31
414.258	598.31
414.482	595.31
414.705	586.31
414.928	600.31
415.151	612.31
415.374	561.31
415.597	590.31
415.821	567.31
416.044	588.31
416.267	581.31
416.49	583.31
416.713	579.31
416.936	592.31
417.159	581.31
417.382	611.31
417.605	576.31
417.828	580.31
418.051	616.31
418.274	639.31
418.497	596.31
418.72	598.31
418.943	605.31
419.166	616.31
419.389	630.31
419.611	636.31
419.834	635.31
420.057	652.31
420.28	647.31
420.503	620.31
420.726	618.31
420.948	600.31
421.171	678.31
421.394	706.31
421.617	653.31
421.839	617.31
422.062	621.31
422.285	624.31
422.507	690.31
422.73	758.31
422.953	762.31
423.175	660.31
423.398	638.31
423.621	664.31
423.843	673.31
424.066	671.31
424.288	654.31
424.511	677.31
424.733	723.31
424.956	824.31
425.178	794.31
425.401	750.31
425.623	807.31
425.846	681.31
426.068	668.31
426.291	672.31
426.513	637.31
426.735	649.31
426.958	684.31
427.18	773.31
427.402	890.31
427.625	1005.31
427.847	853.31
428.069	730.31
428.292	696.31
428.514	630.31
428.736	594.31
428.958	612.31
429.181	600.31
429.403	596.31
429.625	620.31
429.847	620.31
430.069	706.31
430.292	707.31
430.514	641.31
430.736	596.31
430.958	596.31
431.18	599.31
431.402	588.31
431.624	568.31
431.846	562.31
432.068	578.31
432.29	565.31
432.512	588.31
432.734	599.31
432.956	580.31
433.178	590.31
433.4	591.31
433.622	584.31
433.844	599.31
434.066	598.31
434.287	575.31
434.509	596.31
434.731	586.31
434.953	604.31
435.175	622.31
435.397	644.31
435.618	646.31
435.84	676.31
436.062	768.31
436.284	860.31
436.505	696.31
436.727	653.31
436.949	618.31
437.17	600.31
437.392	599.31
437.614	621.31
437.835	632.31
438.057	724.31
438.278	812.31
438.5	856.31
438.721	909.31
438.943	878.31
439.165	702.31
439.386	651.31
439.608	645.31
439.829	659.31
440.05	657.31
440.272	698.31
440.493	670.31
440.715	641.31
440.936	599.31
441.158	613.31
441.379	620.31
441.6	624.31
441.822	637.31
442.043	705.31
442.264	781.31
442.486	854.31
442.707	712.31
442.928	680.31
443.149	667.31
443.371	691.31
443.592	716.31
443.813	829.31
444.034	894.31
444.255	759.31
444.476	670.31
444.698	666.31
444.919	676.31
445.14	796.31
445.361	723.31
445.582	702.31
445.803	746.31
446.024	864.31
446.245	868.31
446.466	799.31
446.687	664.31
446.908	652.31
447.129	630.31
447.35	612.31
447.571	590.31
447.792	588.31
448.013	608.31
448.234	606.31
448.455	647.31
448.675	772.31
448.896	889.31
449.117	764.31
449.338	704.31
449.559	830.31
449.779	909.31
450	723.31
450.221	648.31
450.442	593.31
450.662	551.31
450.883	598.31
451.104	579.31
451.324	560.31
451.545	555.31
451.766	536.31
451.986	525.31
452.207	530.31
452.428	539.31
452.648	545.31
452.869	541.31
453.089	540.31
453.31	537.31
453.53	541.31
453.751	514.31
453.971	522.31
454.192	546.31
454.412	540.31
454.633	530.31
454.853	521.31
455.073	533.31
455.294	557.31
455.514	620.31
455.734	613.31
455.955	562.31
456.175	504.31
456.395	502.31
456.616	502.31
456.836	504.31
457.056	498.31
457.276	500.31
457.497	514.31
457.717	493.31
457.937	500.31
458.157	517.31
458.377	519.31
458.598	544.31
458.818	585.31
459.038	643.31
459.258	684.31
459.478	625.31
459.698	578.31
459.918	566.31
460.138	567.31
460.358	599.31
460.578	590.31
460.798	610.31
461.018	627.31
461.238	579.31
461.458	588.31
461.678	572.31
461.898	595.31
462.118	591.31
462.338	628.31
462.558	610.31
462.777	658.31
462.997	632.31
463.217	684.31
463.437	696.31
463.657	640.31
463.876	651.31
464.096	641.31
464.316	666.31
464.536	676.31
464.755	673.31
464.975	634.31
465.195	647.31
465.414	680.31
465.634	620.31
465.854	616.31
466.073	602.31
466.293	580.31
466.512	587.31
466.732	546.31
466.951	542.31
467.171	535.31
467.391	548.31
467.61	553.31
467.829	559.31
468.049	557.31
468.268	564.31
468.488	549.31
468.707	530.31
468.927	528.31
469.146	523.31
469.365	522.31
469.585	556.31
469.804	557.31
470.023	560.31
470.243	565.31
470.462	559.31
470.681	588.31
470.901	570.31
471.12	569.31
471.339	560.31
471.558	552.31
471.777	570.31
471.997	564.31
472.216	563.31
472.435	589.31
472.654	565.31
472.873	567.31
473.092	531.31
473.311	556.31
473.53	548.31
473.749	552.31
473.968	590.31
474.187	710.31
474.406	744.31
474.625	596.31
474.844	557.31
475.063	564.31
475.282	575.31
475.501	549.31
475.72	569.31
475.939	568.31
476.158	583.31
476.377	580.31
476.596	550.31
476.814	558.31
477.033	588.31
477.252	574.31
477.471	563.31
477.69	586.31
477.908	603.31
478.127	596.31
478.346	614.31
478.564	632.31
478.783	640.31
479.002	633.31
479.22	668.31
479.439	683.31
479.658	665.31
479.876	691.31
480.095	699.31
480.313	692.31
480.532	703.31
480.751	695.31
480.969	701.31
481.188	735.31
481.406	752.31
481.624	695.31
481.843	653.31
482.061	655.31
482.28	666.31
482.498	674.31
482.717	654.31
482.935	663.31
483.153	650.31
483.372	676.31
483.59	640.31
483.808	638.31
484.027	649.31
484.245	668.31
484.463	673.31
484.681	680.31
484.9	671.31
485.118	684.31
485.336	676.31
485.554	663.31
485.772	657.31
485.99	677.31
486.209	681.31
486.427	669.31
486.645	704.31
486.863	705.31
487.081	713.31
487.299	680.31
487.517	706.31
487.735	711.31
487.953	715.31
488.171	677.31
488.389	693.31
488.607	717.31
488.825	698.31
489.043	722.31
489.261	743.31
489.479	717.31
489.696	714.31
489.914	726.31
490.132	749.31
490.35	728.31
490.568	760.31
490.786	745.31
491.003	760.31
491.221	750.31
491.439	776.31
491.657	790.31
491.874	820.31
492.092	790.31
492.31	828.31
492.527	838.31
492.745	822.31
492.963	814.31
493.18	811.31
493.398	837.31
493.615	856.31
493.833	822.31
494.05	845.31
494.268	845.31
494.485	840.31
494.703	845.31
494.92	843.31
495.138	836.31
495.355	846.31
495.573	828.31
495.79	814.31
496.008	835.31
496.225	837.31
496.442	823.31
496.66	865.31
496.877	857.31
497.094	845.31
497.312	865.31
497.529	876.31
497.746	884.31
497.963	888.31
498.181	905.31
498.398	923.31
498.615	955.31
498.832	996.31
499.049	987.31
499.267	1030.31
499.484	1058.31
499.701	1121.31
499.918	1193.31
500.135	1234.31
500.352	1308.31
500.569	1336.31
500.786	1361.31
501.003	1306.31
501.22	1302.31
501.437	1176.31
501.654	1134.31
501.871	1081.31
502.088	1073.31
502.305	1034.31
502.522	964.31
502.739	946.31
502.956	932.31
503.172	904.31
503.389	865.31
503.606	866.31
503.823	858.31
504.04	846.31
504.256	853.31
504.473	856.31
504.69	840.31
504.907	858.31
505.123	820.31
505.34	814.31
505.557	810.31
505.773	801.31
505.99	799.31
506.207	807.31
506.423	811.31
506.64	774.31
506.856	777.31
507.073	749.31
507.289	775.31
507.506	785.31
507.722	756.31
507.939	778.31
508.155	768.31
508.372	746.31
508.588	710.31
508.805	734.31
509.021	719.31
509.238	729.31
509.454	730.31
509.67	736.31
509.887	697.31
510.103	698.31
510.319	711.31
510.536	785.31
510.752	1099.31
510.968	956.31
511.184	722.31
511.401	709.31
511.617	708.31
511.833	689.31
512.049	702.31
512.265	700.31
512.481	679.31
512.698	693.31
512.914	690.31
513.13	661.31
513.346	680.31
513.562	683.31
513.778	702.31
513.994	695.31
514.21	697.31
514.426	705.31
514.642	723.31
514.858	800.31
515.074	768.31
515.29	877.31
515.506	1137.31
515.721	1002.31
515.937	772.31
516.153	734.31
516.369	718.31
516.585	710.31
516.801	727.31
517.016	722.31
517.232	730.31
517.448	747.31
517.664	747.31
517.879	741.31
518.095	739.31
518.311	754.31
518.527	720.31
518.742	719.31
518.958	681.31
519.173	711.31
519.389	660.31
519.605	675.31
519.82	688.31
520.036	706.31
520.251	700.31
520.467	688.31
520.682	719.31
520.898	705.31
521.113	730.31
521.329	748.31
521.544	798.31
521.76	920.31
521.975	1366.31
522.19	1372.31
522.406	854.31
522.621	712.31
522.836	664.31
523.052	654.31
523.267	633.31
523.482	626.31
523.698	620.31
523.913	640.31
524.128	589.31
524.343	590.31
524.559	592.31
524.774	586.31
524.989	589.31
525.204	618.31
525.419	592.31
525.634	602.31
525.849	601.31
526.064	595.31
526.28	594.31
526.495	588.31
526.71	576.31
526.925	585.31
527.14	569.31
527.355	579.31
527.57	564.31
527.785	556.31
527.999	562.31
528.214	546.31
528.429	564.31
528.644	585.31
528.859	580.31
529.074	573.31
529.289	602.31
529.503	629.31
529.718	632.31
529.933	606.31
530.148	564.31
530.363	596.31
530.577	578.31
530.792	573.31
531.007	564.31
531.221	538.31
531.436	568.31
531.651	557.31
531.865	560.31
532.08	567.31
532.295	552.31
532.509	544.31
532.724	557.31
532.938	552.31
533.153	561.31
533.367	564.31
533.582	570.31
533.796	565.31
534.011	549.31
534.225	546.31
534.44	551.31
534.654	544.31
534.868	552.31
535.083	567.31
535.297	533.31
535.511	536.31
535.726	554.31
535.94	575.31
536.154	527.31
536.369	562.31
536.583	541.31
536.797	524.31
537.011	509.31
537.225	532.31
537.44	508.31
537.654	550.31
537.868	549.31
538.082	524.31
538.296	544.31
538.51	516.31
538.724	547.31
538.938	525.31
539.153	538.31
539.367	533.31
539.581	521.31
539.795	521.31
540.009	527.31
540.222	525.31
540.436	500.31
540.65	525.31
540.864	536.31
541.078	562.31
541.292	534.31
541.506	524.31
541.72	523.31
541.934	523.31
542.147	539.31
542.361	520.31
542.575	533.31
542.789	514.31
543.002	532.31
543.216	534.31
543.43	519.31
543.644	517.31
543.857	527.31
544.071	523.31
544.285	534.31
544.498	523.31
544.712	540.31
544.925	526.31
545.139	519.31
545.352	529.31
545.566	541.31
545.779	504.31
545.993	526.31
546.206	534.31
546.42	520.31
546.633	527.31
546.847	529.31
547.06	501.31
547.274	525.31
547.487	522.31
547.7	520.31
547.914	543.31
548.127	526.31
548.34	488.31
548.554	528.31
548.767	494.31
548.98	530.31
549.193	525.31
549.407	527.31
549.62	534.31
549.833	520.31
550.046	514.31
550.259	500.31
550.473	513.31
550.686	518.31
550.899	502.31
551.112	492.31
551.325	485.31
551.538	492.31
551.751	502.31
551.964	506.31
552.177	504.31
552.39	531.31
552.603	503.31
552.816	528.31
553.029	522.31
553.242	541.31
553.455	543.31
553.667	557.31
553.88	535.31
554.093	516.31
554.306	530.31
554.519	529.31
554.732	509.31
554.944	514.31
555.157	486.31
555.37	484.31
555.583	486.31
555.795	519.31
556.008	500.31
556.221	482.31
556.433	478.31
556.646	450.31
556.859	473.31
557.071	473.31
557.284	488.31
557.496	461.31
557.709	458.31
557.921	463.31
558.134	479.31
558.346	461.31
558.559	471.31
558.771	452.31
558.984	464.31
559.196	466.31
559.409	459.31
559.621	454.31
559.833	440.31
560.046	452.31
560.258	448.31
560.47	456.31
560.683	437.31
560.895	454.31
561.107	454.31
561.32	453.31
561.532	458.31
561.744	442.31
561.956	457.31
562.168	479.31
562.381	452.31
562.593	448.31
562.805	456.31
563.017	473.31
563.229	461.31
563.441	459.31
563.653	465.31
563.865	477.31
564.077	489.31
564.289	470.31
564.501	484.31
564.713	475.31
564.925	474.31
565.137	488.31
565.349	492.31
565.561	501.31
565.773	512.31
565.985	527.31
566.197	553.31
566.408	540.31
566.62	565.31
566.832	609.31
567.044	600.31
567.255	598.31
567.467	616.31
567.679	631.31
567.891	634.31
568.102	655.31
568.314	621.31
568.526	608.31
568.737	579.31
568.949	542.31
569.161	506.31
569.372	519.31
569.584	480.31
569.795	476.31
570.007	489.31
570.218	499.31
570.43	476.31
570.641	445.31
570.853	444.31
571.064	462.31
571.276	442.31
571.487	419.31
571.698	442.31
571.91	418.31
572.121	414.31
572.333	409.31
572.544	419.31
572.755	403.31
572.966	402.31
573.178	424.31
573.389	401.31
573.6	389.31
573.811	392.31
574.023	398.31
574.234	382.31
574.445	407.31
574.656	382.31
574.867	378.31
575.078	405.31
575.289	386.31
575.501	401.31
575.712	400.31
575.923	385.31
576.134	398.31
576.345	376.31
576.556	380.31
576.767	370.31
576.978	390.31
577.188	396.31
577.399	372.31
577.61	362.31
577.821	388.31
578.032	388.31
578.243	381.31
578.454	530.31
578.665	450.31
578.875	378.31
579.086	374.31
579.297	368.31
579.508	369.31
579.718	372.31
579.929	352.31
580.14	355.31
580.35	350.31
580.561	362.31
580.772	368.31
580.982	363.31
581.193	347.31
581.403	337.31
581.614	366.31
581.825	362.31
582.035	345.31
582.246	345.31
582.456	360.31
582.667	346.31
582.877	316.31
583.087	336.31
583.298	351.31
583.508	358.31
583.719	339.31
583.929	345.31
584.139	339.31
584.35	354.31
584.56	341.31
584.77	340.31
584.981	341.31
585.191	339.31
585.401	345.31
585.611	341.31
585.821	337.31
586.032	345.31
586.242	355.31
586.452	362.31
586.662	326.31
586.872	339.31
587.082	336.31
587.292	339.31
587.502	346.31
587.713	321.31
587.923	339.31
588.133	305.31
588.343	336.31
588.553	322.31
588.762	325.31
588.972	357.31
589.182	338.31
589.392	337.31
589.602	324.31
589.812	346.31
590.022	338.31
590.232	329.31
590.441	343.31
590.651	329.31
590.861	335.31
591.071	349.31
591.281	338.31
591.49	345.31
591.7	346.31
591.91	347.31
592.119	340.31
592.329	341.31
592.539	359.31
592.748	375.31
592.958	349.31
593.167	350.31
593.377	358.31
593.587	377.31
593.796	364.31
594.006	373.31
594.215	372.31
594.424	371.31
594.634	357.31
594.843	346.31
595.053	356.31
595.262	357.31
595.472	349.31
595.681	325.31
595.89	356.31
596.1	334.31
596.309	349.31
596.518	312.31
596.727	334.31
596.937	309.31
597.146	329.31
597.355	347.31
597.564	310.31
597.774	318.31
597.983	319.31
598.192	306.31
598.401	303.31
598.61	281.31
598.819	309.31
599.028	310.31
599.237	291.31
599.446	293.31
599.655	300.31
599.864	286.31
600.073	290.31
600.282	308.31
600.491	290.31
600.7	278.31
600.909	307.31
601.118	288.31
601.327	308.31
601.536	298.31
601.745	297.31
601.953	306.31
602.162	277.31
602.371	284.31
602.58	303.31
602.789	292.31
602.997	301.31
603.206	295.31
603.415	307.31
603.623	304.31
603.832	270.31
604.041	277.31
604.249	277.31
604.458	263.31
604.666	290.31
604.875	299.31
605.084	286.31
605.292	291.31
605.501	295.31
605.709	284.31
605.918	276.31
606.126	287.31
606.334	265.31
606.543	284.31
606.751	268.31
606.96	276.31
607.168	299.31
607.376	290.31
607.585	294.31
607.793	270.31
608.001	273.31
608.21	290.31
608.418	271.31
608.626	286.31
608.834	271.31
609.043	294.31
609.251	276.31
609.459	273.31
609.667	288.31
609.875	277.31
610.083	276.31
610.291	274.31
610.499	274.31
610.707	275.31
610.916	278.31
611.124	265.31
611.332	284.31
611.54	293.31
611.748	290.31
611.955	263.31
612.163	278.31
612.371	271.31
612.579	276.31
612.787	283.31
612.995	277.31
613.203	276.31
613.411	261.31
613.618	276.31
613.826	254.31
614.034	264.31
614.242	282.31
614.449	272.31
614.657	266.31
614.865	276.31
615.072	259.31
615.28	272.31
615.488	268.31
615.695	274.31
615.903	267.31
616.111	266.31
616.318	275.31
616.526	279.31
616.733	280.31
616.941	275.31
617.148	274.31
617.356	283.31
617.563	251.31
617.771	273.31
617.978	255.31
618.185	265.31
618.393	263.31
618.6	284.31
618.807	263.31
619.015	274.31
619.222	254.31
619.429	270.31
619.637	268.31
619.844	259.31
620.051	264.31
620.258	263.31
620.466	249.31
620.673	244.31
620.88	240.31
621.087	241.31
621.294	240.31
621.501	256.31
621.708	257.31
621.915	274.31
622.122	280.31
622.329	256.31
622.536	259.31
622.743	262.31
622.95	256.31
623.157	237.31
623.364	251.31
623.571	256.31
623.778	254.31
623.985	242.31
624.192	228.31
624.399	266.31
624.606	243.31
624.812	248.31
625.019	220.31
625.226	238.31
625.433	241.31
625.639	228.31
625.846	244.31
626.053	242.31
626.259	252.31
626.466	242.31
626.673	240.31
626.879	232.31
627.086	242.31
627.293	242.31
627.499	237.31
627.706	228.31
627.912	218.31
628.119	228.31
628.325	237.31
628.532	243.31
628.738	234.31
628.945	238.31
629.151	222.31
629.357	218.31
629.564	207.31
629.77	214.31
629.976	227.31
630.183	218.31
630.389	231.31
630.595	208.31
630.802	203.31
631.008	198.31
631.214	224.31
631.42	215.31
631.627	212.31
631.833	206.31
632.039	205.31
632.245	217.31
632.451	221.31
632.657	210.31
632.863	206.31
633.069	219.31
633.275	221.31
633.481	218.31
633.688	208.31
633.893	206.31
634.099	231.31
634.305	212.31
634.511	187.31
634.717	196.31
634.923	198.31
635.129	205.31
635.335	198.31
635.541	202.31
635.747	214.31
635.952	206.31
636.158	202.31
636.364	206.31
636.57	210.31
636.775	215.31
636.981	221.31
637.187	215.31
637.392	188.31
637.598	196.31
637.804	206.31
638.009	215.31
638.215	206.31
638.421	186.31
638.626	192.31
638.832	206.31
639.037	209.31
639.243	196.31
639.448	178.31
639.654	205.31
639.859	192.31
640.065	183.31
640.27	190.31
640.475	194.31
640.681	179.31
640.886	205.31
641.091	213.31
641.297	191.31
641.502	194.31
641.707	201.31
641.913	205.31
642.118	214.31
642.323	176.31
642.528	182.31
642.733	189.31
642.939	198.31
643.144	180.31
643.349	190.31
643.554	192.31
643.759	183.31
643.964	196.31
644.169	192.31
644.374	182.31
644.579	184.31
644.784	192.31
644.989	196.31
645.194	200.31
645.399	189.31
645.604	189.31
645.809	179.31
646.014	185.31
646.219	182.31
646.423	190.31
646.628	170.31
646.833	192.31
647.038	177.31
647.243	185.31
647.447	187.31
647.652	200.31
647.857	165.31
648.062	179.31
648.266	185.31
648.471	177.31
648.676	195.31
648.88	200.31
649.085	204.31
649.289	200.31
649.494	186.31
649.698	200.31
649.903	200.31
650.107	192.31
650.312	185.31
650.516	184.31
650.721	163.31
650.925	176.31
651.13	167.31
651.334	154.31
651.539	175.31
651.743	172.31
651.947	172.31
652.152	161.31
652.356	165.31
652.56	149.31
652.764	149.31
652.969	155.31
653.173	153.31
653.377	161.31
653.581	152.31
653.785	131.31
653.99	147.31
654.194	153.31
654.398	151.31
654.602	149.31
654.806	147.31
655.01	155.31
655.214	155.31
655.418	147.31
655.622	140.31
655.826	148.31
656.03	124.31
656.234	142.31
656.438	145.31
656.642	145.31
656.846	131.31
657.049	128.31
657.253	132.31
657.457	133.31
657.661	126.31
657.865	121.31
658.068	115.31
658.272	124.31
658.476	108.31
658.68	130.31
658.883	101.31
659.087	114.31
659.291	109.31
659.494	103.31
659.698	116.31
659.901	113.31
660.105	103.31
660.309	92.31
660.512	95.31
660.716	101.31
660.919	96.31
661.123	98.31
661.326	89.31
661.53	75.31
661.733	82.31
661.936	99.31
662.14	74.31
662.343	92.31
662.546	74.31
662.75	88.31
662.953	104.31
663.156	82.31
663.36	83.31
663.563	80.31
663.766	92.31
663.969	87.31
664.173	92.31
664.376	87.31
664.579	82.31
664.782	94.31
664.985	101.31
665.188	86.31
665.391	88.31
665.594	80.31
665.797	88.31
666	71.31
666.203	84.31
666.406	80.31
666.609	79.31
666.812	87.31
667.015	74.31
667.218	85.31
667.421	82.31
667.624	81.31
667.827	86.31
668.03	93.31
668.232	75.31
668.435	68.31
668.638	88.31
668.841	81.31
669.043	76.31
669.246	82.31
669.449	64.31
669.651	91.31
669.854	89.31
670.057	82.31
670.259	76.31
670.462	90.31
670.665	85.31
670.867	69.31
671.07	82.31
671.272	88.31
671.475	86.31
671.677	85.31
671.88	81.31
672.082	78.31
672.284	83.31
672.487	90.31
672.689	80.31
672.892	84.31
