Data from 1977.PennyLincolnUp.Lamp.En5.5.200Scan.071719.P1_HRD10591_16-04-58-865.txt Node
Date: Thu Jul 18 16:04:58 EDT 2019
User: cochatt
Spectrometer: HR+D1059
Trigger mode: 1
Integration Time (sec): 1.000000E-1
Scans to average: 1
Electric dark correction enabled: true
Nonlinearity correction enabled: false
Boxcar width: 0
XAxis mode: Wavelengths
Number of Pixels in Spectrum: 2048
>>>>>Begin Spectral Data<<<<<
223.165	-19.19
223.4	-19.19
223.635	-19.19
223.869	-21.19
224.104	-17.19
224.338	-12.19
224.573	-8.19
224.808	-13.19
225.042	-13.19
225.277	-9.19
225.511	-6.19
225.746	13.81
225.98	17.81
226.215	13.81
226.449	13.81
226.683	10.81
226.918	13.81
227.152	35.81
227.387	37.81
227.621	40.81
227.856	46.81
228.09	37.81
228.324	54.81
228.559	48.81
228.793	69.81
229.027	94.81
229.262	93.81
229.496	98.81
229.73	106.81
229.964	120.81
230.199	105.81
230.433	76.81
230.667	112.81
230.901	93.81
231.136	110.81
231.37	99.81
231.604	102.81
231.838	105.81
232.072	103.81
232.306	116.81
232.541	107.81
232.775	104.81
233.009	107.81
233.243	119.81
233.477	98.81
233.711	98.81
233.945	116.81
234.179	110.81
234.413	100.81
234.647	109.81
234.881	114.81
235.115	120.81
235.349	107.81
235.583	106.81
235.817	107.81
236.051	109.81
236.285	117.81
236.519	122.81
236.753	112.81
236.987	124.81
237.221	136.81
237.455	168.81
237.689	143.81
237.922	126.81
238.156	120.81
238.39	129.81
238.624	120.81
238.858	112.81
239.091	98.81
239.325	99.81
239.559	113.81
239.793	125.81
240.027	109.81
240.26	125.81
240.494	148.81
240.728	138.81
240.961	139.81
241.195	157.81
241.429	118.81
241.662	123.81
241.896	123.81
242.13	116.81
242.363	119.81
242.597	126.81
242.83	138.81
243.064	130.81
243.298	121.81
243.531	117.81
243.765	135.81
243.998	131.81
244.232	137.81
244.465	133.81
244.699	139.81
244.932	125.81
245.166	132.81
245.399	122.81
245.633	128.81
245.866	133.81
246.099	128.81
246.333	132.81
246.566	141.81
246.8	149.81
247.033	146.81
247.266	142.81
247.5	148.81
247.733	145.81
247.966	129.81
248.2	161.81
248.433	161.81
248.666	153.81
248.899	149.81
249.133	169.81
249.366	171.81
249.599	161.81
249.832	148.81
250.066	162.81
250.299	164.81
250.532	161.81
250.765	177.81
250.998	182.81
251.231	167.81
251.465	173.81
251.698	170.81
251.931	169.81
252.164	154.81
252.397	165.81
252.63	166.81
252.863	169.81
253.096	183.81
253.329	178.81
253.562	195.81
253.795	182.81
254.028	188.81
254.261	178.81
254.494	202.81
254.727	185.81
254.96	214.81
255.193	233.81
255.426	210.81
255.659	193.81
255.892	205.81
256.124	183.81
256.357	188.81
256.59	197.81
256.823	179.81
257.056	180.81
257.289	191.81
257.521	176.81
257.754	183.81
257.987	184.81
258.22	188.81
258.452	188.81
258.685	206.81
258.918	193.81
259.151	196.81
259.383	195.81
259.616	186.81
259.849	192.81
260.081	188.81
260.314	205.81
260.547	224.81
260.779	216.81
261.012	208.81
261.244	189.81
261.477	212.81
261.71	197.81
261.942	196.81
262.175	197.81
262.407	187.81
262.64	180.81
262.872	201.81
263.105	180.81
263.337	198.81
263.57	203.81
263.802	199.81
264.035	192.81
264.267	201.81
264.499	208.81
264.732	210.81
264.964	185.81
265.197	193.81
265.429	201.81
265.661	186.81
265.894	194.81
266.126	195.81
266.358	209.81
266.591	209.81
266.823	211.81
267.055	209.81
267.287	205.81
267.52	211.81
267.752	215.81
267.984	210.81
268.216	218.81
268.448	209.81
268.681	229.81
268.913	215.81
269.145	229.81
269.377	233.81
269.609	230.81
269.841	220.81
270.073	229.81
270.306	256.81
270.538	261.81
270.77	256.81
271.002	248.81
271.234	261.81
271.466	242.81
271.698	241.81
271.93	253.81
272.162	246.81
272.394	260.81
272.626	246.81
272.858	246.81
273.09	243.81
273.322	256.81
273.553	235.81
273.785	227.81
274.017	237.81
274.249	232.81
274.481	242.81
274.713	238.81
274.945	225.81
275.176	256.81
275.408	254.81
275.64	260.81
275.872	234.81
276.104	256.81
276.335	257.81
276.567	273.81
276.799	256.81
277.031	248.81
277.262	263.81
277.494	264.81
277.726	267.81
277.957	248.81
278.189	256.81
278.421	258.81
278.652	254.81
278.884	255.81
279.115	242.81
279.347	249.81
279.579	246.81
279.81	247.81
280.042	252.81
280.273	271.81
280.505	254.81
280.736	251.81
280.968	244.81
281.199	275.81
281.431	250.81
281.662	250.81
281.894	244.81
282.125	256.81
282.356	260.81
282.588	256.81
282.819	279.81
283.051	267.81
283.282	258.81
283.513	240.81
283.745	263.81
283.976	276.81
284.207	256.81
284.439	265.81
284.67	273.81
284.901	266.81
285.132	265.81
285.364	258.81
285.595	249.81
285.826	254.81
286.057	258.81
286.288	261.81
286.52	264.81
286.751	270.81
286.982	278.81
287.213	273.81
287.444	259.81
287.675	265.81
287.906	283.81
288.138	281.81
288.369	293.81
288.6	292.81
288.831	278.81
289.062	266.81
289.293	280.81
289.524	270.81
289.755	283.81
289.986	283.81
290.217	283.81
290.448	267.81
290.679	264.81
290.91	268.81
291.141	266.81
291.371	277.81
291.602	262.81
291.833	284.81
292.064	293.81
292.295	260.81
292.526	284.81
292.757	285.81
292.987	269.81
293.218	284.81
293.449	266.81
293.68	287.81
293.91	300.81
294.141	272.81
294.372	270.81
294.603	284.81
294.833	285.81
295.064	296.81
295.295	276.81
295.525	284.81
295.756	263.81
295.987	290.81
296.217	282.81
296.448	289.81
296.679	315.81
296.909	288.81
297.14	275.81
297.37	294.81
297.601	289.81
297.831	302.81
298.062	294.81
298.292	296.81
298.523	288.81
298.753	305.81
298.984	300.81
299.214	285.81
299.445	290.81
299.675	322.81
299.905	299.81
300.136	307.81
300.366	292.81
300.597	300.81
300.827	311.81
301.057	307.81
301.288	308.81
301.518	306.81
301.748	326.81
301.979	317.81
302.209	316.81
302.439	315.81
302.669	308.81
302.9	297.81
303.13	312.81
303.36	316.81
303.59	304.81
303.82	310.81
304.051	319.81
304.281	317.81
304.511	315.81
304.741	323.81
304.971	312.81
305.201	310.81
305.431	306.81
305.661	309.81
305.891	315.81
306.121	309.81
306.352	316.81
306.582	318.81
306.812	322.81
307.042	307.81
307.272	297.81
307.502	299.81
307.731	302.81
307.961	321.81
308.191	319.81
308.421	330.81
308.651	316.81
308.881	301.81
309.111	320.81
309.341	306.81
309.571	318.81
309.8	331.81
310.03	323.81
310.26	337.81
310.49	332.81
310.72	328.81
310.949	339.81
311.179	328.81
311.409	328.81
311.639	330.81
311.868	348.81
312.098	338.81
312.328	328.81
312.557	361.81
312.787	340.81
313.017	346.81
313.246	350.81
313.476	337.81
313.706	346.81
313.935	340.81
314.165	339.81
314.394	329.81
314.624	345.81
314.853	356.81
315.083	329.81
315.312	352.81
315.542	357.81
315.771	339.81
316.001	335.81
316.23	351.81
316.46	352.81
316.689	343.81
316.919	345.81
317.148	339.81
317.377	353.81
317.607	352.81
317.836	346.81
318.065	346.81
318.295	339.81
318.524	341.81
318.753	360.81
318.983	344.81
319.212	349.81
319.441	349.81
319.67	349.81
319.9	348.81
320.129	348.81
320.358	350.81
320.587	334.81
320.816	347.81
321.046	342.81
321.275	369.81
321.504	374.81
321.733	346.81
321.962	359.81
322.191	365.81
322.42	371.81
322.649	375.81
322.878	374.81
323.108	392.81
323.337	403.81
323.566	392.81
323.795	401.81
324.024	426.81
324.253	448.81
324.482	604.81
324.71	838.81
324.939	1140.81
325.168	1003.81
325.397	574.81
325.626	460.81
325.855	422.81
326.084	379.81
326.313	398.81
326.542	386.81
326.77	399.81
326.999	462.81
327.228	566.81
327.457	762.81
327.686	869.81
327.914	636.81
328.143	456.81
328.372	432.81
328.6	416.81
328.829	398.81
329.058	405.81
329.287	414.81
329.515	434.81
329.744	397.81
329.972	402.81
330.201	414.81
330.43	416.81
330.658	431.81
330.887	427.81
331.115	429.81
331.344	418.81
331.572	405.81
331.801	397.81
332.03	396.81
332.258	398.81
332.486	411.81
332.715	401.81
332.943	413.81
333.172	412.81
333.4	429.81
333.629	434.81
333.857	435.81
334.085	416.81
334.314	424.81
334.542	437.81
334.771	445.81
334.999	419.81
335.227	417.81
335.455	426.81
335.684	423.81
335.912	411.81
336.14	398.81
336.369	412.81
336.597	418.81
336.825	410.81
337.053	404.81
337.281	423.81
337.51	395.81
337.738	406.81
337.966	403.81
338.194	378.81
338.422	392.81
338.65	409.81
338.878	394.81
339.106	398.81
339.334	395.81
339.562	393.81
339.79	383.81
340.018	390.81
340.246	380.81
340.474	402.81
340.702	374.81
340.93	377.81
341.158	396.81
341.386	392.81
341.614	374.81
341.842	366.81
342.07	394.81
342.298	388.81
342.526	388.81
342.754	365.81
342.981	382.81
343.209	372.81
343.437	389.81
343.665	399.81
343.893	403.81
344.12	403.81
344.348	397.81
344.576	385.81
344.804	405.81
345.031	392.81
345.259	389.81
345.487	385.81
345.714	391.81
345.942	369.81
346.17	368.81
346.397	376.81
346.625	372.81
346.853	371.81
347.08	363.81
347.308	345.81
347.535	380.81
347.763	386.81
347.99	347.81
348.218	363.81
348.445	377.81
348.673	357.81
348.9	352.81
349.128	350.81
349.355	349.81
349.583	353.81
349.81	344.81
350.037	365.81
350.265	360.81
350.492	342.81
350.72	357.81
350.947	372.81
351.174	372.81
351.402	374.81
351.629	347.81
351.856	356.81
352.083	355.81
352.311	373.81
352.538	367.81
352.765	384.81
352.992	350.81
353.22	363.81
353.447	367.81
353.674	357.81
353.901	348.81
354.128	356.81
354.355	360.81
354.583	338.81
354.81	344.81
355.037	374.81
355.264	346.81
355.491	352.81
355.718	342.81
355.945	354.81
356.172	343.81
356.399	356.81
356.626	345.81
356.853	340.81
357.08	356.81
357.307	353.81
357.534	336.81
357.761	350.81
357.988	353.81
358.215	347.81
358.441	341.81
358.668	353.81
358.895	357.81
359.122	371.81
359.349	365.81
359.576	366.81
359.802	376.81
360.029	366.81
360.256	366.81
360.483	361.81
360.709	360.81
360.936	368.81
361.163	359.81
361.39	352.81
361.616	368.81
361.843	352.81
362.07	375.81
362.296	369.81
362.523	340.81
362.749	352.81
362.976	340.81
363.203	366.81
363.429	355.81
363.656	336.81
363.882	349.81
364.109	353.81
364.335	349.81
364.562	355.81
364.788	346.81
365.015	340.81
365.241	358.81
365.468	337.81
365.694	352.81
365.92	368.81
366.147	349.81
366.373	362.81
366.599	363.81
366.826	349.81
367.052	351.81
367.278	357.81
367.505	338.81
367.731	348.81
367.957	336.81
368.184	353.81
368.41	352.81
368.636	362.81
368.862	365.81
369.089	354.81
369.315	337.81
369.541	338.81
369.767	366.81
369.993	354.81
370.219	358.81
370.445	346.81
370.672	352.81
370.898	344.81
371.124	339.81
371.35	352.81
371.576	364.81
371.802	333.81
372.028	352.81
372.254	341.81
372.48	346.81
372.706	352.81
372.932	379.81
373.158	370.81
373.384	377.81
373.61	375.81
373.835	353.81
374.061	344.81
374.287	360.81
374.513	345.81
374.739	369.81
374.965	372.81
375.191	364.81
375.416	358.81
375.642	364.81
375.868	368.81
376.094	350.81
376.319	376.81
376.545	363.81
376.771	340.81
376.997	345.81
377.222	348.81
377.448	351.81
377.674	357.81
377.899	359.81
378.125	353.81
378.35	374.81
378.576	356.81
378.802	343.81
379.027	343.81
379.253	345.81
379.478	347.81
379.704	346.81
379.929	338.81
380.155	361.81
380.38	374.81
380.606	367.81
380.831	359.81
381.057	353.81
381.282	366.81
381.507	357.81
381.733	344.81
381.958	349.81
382.184	349.81
382.409	370.81
382.634	341.81
382.86	360.81
383.085	365.81
383.31	372.81
383.535	374.81
383.761	377.81
383.986	381.81
384.211	374.81
384.436	372.81
384.662	366.81
384.887	370.81
385.112	392.81
385.337	393.81
385.562	386.81
385.787	398.81
386.013	425.81
386.238	401.81
386.463	410.81
386.688	388.81
386.913	394.81
387.138	371.81
387.363	415.81
387.588	395.81
387.813	377.81
388.038	388.81
388.263	392.81
388.488	409.81
388.713	384.81
388.938	396.81
389.163	380.81
389.387	397.81
389.612	378.81
389.837	384.81
390.062	368.81
390.287	383.81
390.512	389.81
390.736	381.81
390.961	398.81
391.186	400.81
391.411	395.81
391.636	403.81
391.86	402.81
392.085	409.81
392.31	398.81
392.534	390.81
392.759	404.81
392.984	388.81
393.208	390.81
393.433	410.81
393.658	401.81
393.882	416.81
394.107	409.81
394.331	394.81
394.556	372.81
394.78	373.81
395.005	386.81
395.229	406.81
395.454	409.81
395.678	436.81
395.903	411.81
396.127	413.81
396.352	414.81
396.576	391.81
396.801	390.81
397.025	423.81
397.249	395.81
397.474	395.81
397.698	410.81
397.922	418.81
398.147	433.81
398.371	422.81
398.595	422.81
398.82	454.81
399.044	450.81
399.268	481.81
399.492	529.81
399.717	533.81
399.941	513.81
400.165	535.81
400.389	538.81
400.613	483.81
400.837	463.81
401.062	447.81
401.286	425.81
401.51	446.81
401.734	436.81
401.958	419.81
402.182	438.81
402.406	440.81
402.63	443.81
402.854	443.81
403.078	444.81
403.302	453.81
403.526	440.81
403.75	453.81
403.974	462.81
404.198	445.81
404.422	451.81
404.645	462.81
404.869	455.81
405.093	482.81
405.317	506.81
405.541	487.81
405.765	463.81
405.988	467.81
406.212	466.81
406.436	481.81
406.66	481.81
406.883	471.81
407.107	498.81
407.331	541.81
407.555	566.81
407.778	566.81
408.002	547.81
408.226	494.81
408.449	486.81
408.673	500.81
408.896	496.81
409.12	530.81
409.344	517.81
409.567	462.81
409.791	448.81
410.014	443.81
410.238	439.81
410.461	448.81
410.685	451.81
410.908	447.81
411.132	459.81
411.355	510.81
411.578	492.81
411.802	449.81
412.025	442.81
412.249	456.81
412.472	472.81
412.695	476.81
412.919	482.81
413.142	452.81
413.365	452.81
413.589	443.81
413.812	409.81
414.035	418.81
414.258	407.81
414.482	441.81
414.705	423.81
414.928	439.81
415.151	424.81
415.374	435.81
415.597	425.81
415.821	411.81
416.044	398.81
416.267	419.81
416.49	407.81
416.713	409.81
416.936	425.81
417.159	418.81
417.382	412.81
417.605	425.81
417.828	426.81
418.051	413.81
418.274	440.81
418.497	432.81
418.72	438.81
418.943	394.81
419.166	426.81
419.389	470.81
419.611	461.81
419.834	423.81
420.057	451.81
420.28	429.81
420.503	423.81
420.726	409.81
420.948	443.81
421.171	434.81
421.394	482.81
421.617	429.81
421.839	430.81
422.062	450.81
422.285	419.81
422.507	493.81
422.73	528.81
422.953	487.81
423.175	462.81
423.398	443.81
423.621	436.81
423.843	446.81
424.066	459.81
424.288	438.81
424.511	462.81
424.733	501.81
424.956	552.81
425.178	522.81
425.401	508.81
425.623	542.81
425.846	460.81
426.068	435.81
426.291	419.81
426.513	437.81
426.735	439.81
426.958	468.81
427.18	532.81
427.402	595.81
427.625	650.81
427.847	550.81
428.069	476.81
428.292	452.81
428.514	418.81
428.736	413.81
428.958	414.81
429.181	407.81
429.403	393.81
429.625	412.81
429.847	432.81
430.069	460.81
430.292	462.81
430.514	442.81
430.736	410.81
430.958	402.81
431.18	396.81
431.402	380.81
431.624	389.81
431.846	378.81
432.068	388.81
432.29	398.81
432.512	399.81
432.734	416.81
432.956	394.81
433.178	398.81
433.4	405.81
433.622	397.81
433.844	395.81
434.066	404.81
434.287	404.81
434.509	388.81
434.731	407.81
434.953	436.81
435.175	414.81
435.397	429.81
435.618	425.81
435.84	461.81
436.062	517.81
436.284	563.81
436.505	482.81
436.727	450.81
436.949	413.81
437.17	410.81
437.392	384.81
437.614	417.81
437.835	423.81
438.057	474.81
438.278	537.81
438.5	541.81
438.721	619.81
438.943	609.81
439.165	463.81
439.386	429.81
439.608	421.81
439.829	429.81
440.05	449.81
440.272	477.81
440.493	444.81
440.715	417.81
440.936	420.81
441.158	413.81
441.379	404.81
441.6	421.81
441.822	432.81
442.043	459.81
442.264	526.81
442.486	524.81
442.707	460.81
442.928	440.81
443.149	462.81
443.371	440.81
443.592	489.81
443.813	554.81
444.034	570.81
444.255	517.81
444.476	461.81
444.698	450.81
444.919	457.81
445.14	551.81
445.361	480.81
445.582	469.81
445.803	488.81
446.024	549.81
446.245	566.81
446.466	531.81
446.687	473.81
446.908	448.81
447.129	391.81
447.35	394.81
447.571	411.81
447.792	410.81
448.013	392.81
448.234	412.81
448.455	433.81
448.675	504.81
448.896	607.81
449.117	478.81
449.338	466.81
449.559	530.81
449.779	607.81
450	491.81
450.221	402.81
450.442	390.81
450.662	404.81
450.883	399.81
451.104	385.81
451.324	383.81
451.545	362.81
451.766	372.81
451.986	358.81
452.207	359.81
452.428	358.81
452.648	359.81
452.869	380.81
453.089	360.81
453.31	364.81
453.53	369.81
453.751	372.81
453.971	350.81
454.192	356.81
454.412	361.81
454.633	358.81
454.853	358.81
455.073	338.81
455.294	389.81
455.514	409.81
455.734	376.81
455.955	345.81
456.175	363.81
456.395	340.81
456.616	340.81
456.836	350.81
457.056	344.81
457.276	345.81
457.497	356.81
457.717	350.81
457.937	358.81
458.157	378.81
458.377	360.81
458.598	373.81
458.818	380.81
459.038	423.81
459.258	451.81
459.478	390.81
459.698	389.81
459.918	425.81
460.138	403.81
460.358	427.81
460.578	406.81
460.798	408.81
461.018	394.81
461.238	410.81
461.458	417.81
461.678	428.81
461.898	424.81
462.118	419.81
462.338	429.81
462.558	443.81
462.777	440.81
462.997	430.81
463.217	474.81
463.437	477.81
463.657	465.81
463.876	442.81
464.096	457.81
464.316	442.81
464.536	461.81
464.755	466.81
464.975	456.81
465.195	432.81
465.414	445.81
465.634	429.81
465.854	393.81
466.073	389.81
466.293	395.81
466.512	379.81
466.732	382.81
466.951	389.81
467.171	374.81
467.391	366.81
467.61	365.81
467.829	371.81
468.049	384.81
468.268	363.81
468.488	370.81
468.707	366.81
468.927	372.81
469.146	368.81
469.365	372.81
469.585	354.81
469.804	377.81
470.023	390.81
470.243	373.81
470.462	384.81
470.681	380.81
470.901	395.81
471.12	366.81
471.339	373.81
471.558	382.81
471.777	387.81
471.997	369.81
472.216	386.81
472.435	391.81
472.654	380.81
472.873	374.81
473.092	381.81
473.311	388.81
473.53	386.81
473.749	376.81
473.968	414.81
474.187	458.81
474.406	460.81
474.625	411.81
474.844	372.81
475.063	382.81
475.282	373.81
475.501	393.81
475.72	389.81
475.939	386.81
476.158	392.81
476.377	409.81
476.596	398.81
476.814	402.81
477.033	397.81
477.252	376.81
477.471	422.81
477.69	426.81
477.908	429.81
478.127	409.81
478.346	426.81
478.564	425.81
478.783	419.81
479.002	439.81
479.22	429.81
479.439	450.81
479.658	442.81
479.876	440.81
480.095	451.81
480.313	469.81
480.532	486.81
480.751	487.81
480.969	445.81
481.188	463.81
481.406	456.81
481.624	466.81
481.843	444.81
482.061	440.81
482.28	425.81
482.498	438.81
482.717	444.81
482.935	446.81
483.153	444.81
483.372	444.81
483.59	448.81
483.808	452.81
484.027	457.81
484.245	445.81
484.463	435.81
484.681	455.81
484.9	431.81
485.118	461.81
485.336	454.81
485.554	459.81
485.772	441.81
485.99	452.81
486.209	473.81
486.427	473.81
486.645	446.81
486.863	452.81
487.081	460.81
487.299	462.81
487.517	453.81
487.735	448.81
487.953	484.81
488.171	462.81
488.389	450.81
488.607	475.81
488.825	450.81
489.043	445.81
489.261	461.81
489.479	456.81
489.696	456.81
489.914	459.81
490.132	481.81
490.35	488.81
490.568	481.81
490.786	477.81
491.003	491.81
491.221	516.81
491.439	502.81
491.657	477.81
491.874	491.81
492.092	491.81
492.31	491.81
492.527	499.81
492.745	496.81
492.963	479.81
493.18	518.81
493.398	504.81
493.615	500.81
493.833	535.81
494.05	529.81
494.268	532.81
494.485	500.81
494.703	517.81
494.92	516.81
495.138	505.81
495.355	524.81
495.573	519.81
495.79	516.81
496.008	525.81
496.225	530.81
496.442	519.81
496.66	544.81
496.877	547.81
497.094	542.81
497.312	556.81
497.529	551.81
497.746	580.81
497.963	594.81
498.181	578.81
498.398	582.81
498.615	609.81
498.832	655.81
499.049	650.81
499.267	679.81
499.484	699.81
499.701	747.81
499.918	758.81
500.135	837.81
500.352	852.81
500.569	861.81
500.786	881.81
501.003	882.81
501.22	806.81
501.437	792.81
501.654	754.81
501.871	730.81
502.088	678.81
502.305	635.81
502.522	644.81
502.739	626.81
502.956	599.81
503.172	592.81
503.389	592.81
503.606	569.81
503.823	552.81
504.04	555.81
504.256	549.81
504.473	542.81
504.69	561.81
504.907	565.81
505.123	545.81
505.34	543.81
505.557	496.81
505.773	513.81
505.99	490.81
506.207	495.81
506.423	489.81
506.64	490.81
506.856	503.81
507.073	487.81
507.289	461.81
507.506	484.81
507.722	513.81
507.939	488.81
508.155	496.81
508.372	466.81
508.588	461.81
508.805	460.81
509.021	442.81
509.238	464.81
509.454	468.81
509.67	472.81
509.887	449.81
510.103	472.81
510.319	449.81
510.536	481.81
510.752	635.81
510.968	546.81
511.184	453.81
511.401	459.81
511.617	457.81
511.833	439.81
512.049	434.81
512.265	422.81
512.481	450.81
512.698	451.81
512.914	442.81
513.13	440.81
513.346	433.81
513.562	422.81
513.778	439.81
513.994	438.81
514.21	436.81
514.426	464.81
514.642	458.81
514.858	439.81
515.074	449.81
515.29	506.81
515.506	608.81
515.721	562.81
515.937	491.81
516.153	450.81
516.369	465.81
516.585	462.81
516.801	471.81
517.016	468.81
517.232	483.81
517.448	488.81
517.664	476.81
517.879	487.81
518.095	512.81
518.311	470.81
518.527	477.81
518.742	473.81
518.958	483.81
519.173	467.81
519.389	455.81
519.605	458.81
519.82	451.81
520.036	451.81
520.251	461.81
520.467	471.81
520.682	457.81
520.898	451.81
521.113	460.81
521.329	450.81
521.544	491.81
521.76	538.81
521.975	697.81
522.19	670.81
522.406	501.81
522.621	440.81
522.836	403.81
523.052	422.81
523.267	413.81
523.482	398.81
523.698	405.81
523.913	394.81
524.128	385.81
524.343	395.81
524.559	378.81
524.774	405.81
524.989	379.81
525.204	400.81
525.419	398.81
525.634	375.81
525.849	392.81
526.064	401.81
526.28	381.81
526.495	390.81
526.71	386.81
526.925	368.81
527.14	370.81
527.355	381.81
527.57	375.81
527.785	383.81
527.999	356.81
528.214	372.81
528.429	373.81
528.644	405.81
528.859	371.81
529.074	387.81
529.289	389.81
529.503	393.81
529.718	390.81
529.933	388.81
530.148	392.81
530.363	377.81
530.577	368.81
530.792	372.81
531.007	377.81
531.221	353.81
531.436	375.81
531.651	362.81
531.865	363.81
532.08	393.81
532.295	380.81
532.509	370.81
532.724	379.81
532.938	362.81
533.153	353.81
533.367	377.81
533.582	377.81
533.796	370.81
534.011	359.81
534.225	358.81
534.44	350.81
534.654	360.81
534.868	378.81
535.083	354.81
535.297	375.81
535.511	365.81
535.726	376.81
535.94	372.81
536.154	372.81
536.369	352.81
536.583	368.81
536.797	342.81
537.011	352.81
537.225	361.81
537.44	359.81
537.654	357.81
537.868	355.81
538.082	350.81
538.296	358.81
538.51	382.81
538.724	362.81
538.938	362.81
539.153	342.81
539.367	352.81
539.581	347.81
539.795	369.81
540.009	344.81
540.222	353.81
540.436	359.81
540.65	340.81
540.864	353.81
541.078	365.81
541.292	348.81
541.506	361.81
541.72	359.81
541.934	340.81
542.147	348.81
542.361	347.81
542.575	352.81
542.789	360.81
543.002	346.81
543.216	352.81
543.43	352.81
543.644	356.81
543.857	352.81
544.071	356.81
544.285	344.81
544.498	350.81
544.712	370.81
544.925	358.81
545.139	364.81
545.352	357.81
545.566	355.81
545.779	348.81
545.993	361.81
546.206	354.81
546.42	345.81
546.633	372.81
546.847	342.81
547.06	333.81
547.274	340.81
547.487	334.81
547.7	350.81
547.914	339.81
548.127	363.81
548.34	354.81
548.554	355.81
548.767	362.81
548.98	339.81
549.193	348.81
549.407	337.81
549.62	341.81
549.833	339.81
550.046	358.81
550.259	341.81
550.473	329.81
550.686	338.81
550.899	332.81
551.112	343.81
551.325	341.81
551.538	344.81
551.751	341.81
551.964	349.81
552.177	361.81
552.39	349.81
552.603	350.81
552.816	350.81
553.029	353.81
553.242	338.81
553.455	358.81
553.667	360.81
553.88	365.81
554.093	344.81
554.306	368.81
554.519	364.81
554.732	346.81
554.944	368.81
555.157	331.81
555.37	323.81
555.583	333.81
555.795	320.81
556.008	326.81
556.221	312.81
556.433	300.81
556.646	327.81
556.859	326.81
557.071	337.81
557.284	318.81
557.496	327.81
557.709	311.81
557.921	318.81
558.134	316.81
558.346	313.81
558.559	314.81
558.771	328.81
558.984	302.81
559.196	320.81
559.409	301.81
559.621	316.81
559.833	314.81
560.046	309.81
560.258	296.81
560.47	314.81
560.683	313.81
560.895	292.81
561.107	297.81
561.32	301.81
561.532	302.81
561.744	318.81
561.956	308.81
562.168	331.81
562.381	311.81
562.593	319.81
562.805	317.81
563.017	299.81
563.229	298.81
563.441	299.81
563.653	320.81
563.865	319.81
564.077	324.81
564.289	328.81
564.501	334.81
564.713	320.81
564.925	324.81
565.137	336.81
565.349	340.81
565.561	362.81
565.773	360.81
565.985	387.81
566.197	365.81
566.408	388.81
566.62	383.81
566.832	390.81
567.044	423.81
567.255	412.81
567.467	403.81
567.679	402.81
567.891	422.81
568.102	434.81
568.314	417.81
568.526	412.81
568.737	385.81
568.949	376.81
569.161	360.81
569.372	340.81
569.584	342.81
569.795	336.81
570.007	311.81
570.218	333.81
570.43	334.81
570.641	312.81
570.853	308.81
571.064	308.81
571.276	326.81
571.487	304.81
571.698	292.81
571.91	306.81
572.121	313.81
572.333	305.81
572.544	303.81
572.755	270.81
572.966	290.81
573.178	280.81
573.389	262.81
573.6	265.81
573.811	280.81
574.023	272.81
574.234	272.81
574.445	280.81
574.656	261.81
574.867	279.81
575.078	262.81
575.289	274.81
575.501	276.81
575.712	265.81
575.923	268.81
576.134	264.81
576.345	272.81
576.556	260.81
576.767	285.81
576.978	272.81
577.188	275.81
577.399	267.81
577.61	264.81
577.821	252.81
578.032	253.81
578.243	261.81
578.454	332.81
578.665	271.81
578.875	262.81
579.086	267.81
579.297	263.81
579.508	263.81
579.718	253.81
579.929	254.81
580.14	254.81
580.35	254.81
580.561	251.81
580.772	253.81
580.982	261.81
581.193	239.81
581.403	245.81
581.614	248.81
581.825	244.81
582.035	249.81
582.246	243.81
582.456	264.81
582.667	250.81
582.877	260.81
583.087	248.81
583.298	257.81
583.508	263.81
583.719	263.81
583.929	240.81
584.139	246.81
584.35	246.81
584.56	245.81
584.77	259.81
584.981	233.81
585.191	246.81
585.401	245.81
585.611	258.81
585.821	244.81
586.032	255.81
586.242	233.81
586.452	247.81
586.662	237.81
586.872	231.81
587.082	232.81
587.292	223.81
587.502	229.81
587.713	247.81
587.923	222.81
588.133	243.81
588.343	244.81
588.553	236.81
588.762	246.81
588.972	230.81
589.182	236.81
589.392	247.81
589.602	247.81
589.812	248.81
590.022	262.81
590.232	246.81
590.441	236.81
590.651	232.81
590.861	252.81
591.071	246.81
591.281	245.81
591.49	256.81
591.7	240.81
591.91	242.81
592.119	259.81
592.329	260.81
592.539	261.81
592.748	272.81
592.958	278.81
593.167	262.81
593.377	253.81
593.587	281.81
593.796	268.81
594.006	276.81
594.215	273.81
594.424	264.81
594.634	292.81
594.843	258.81
595.053	264.81
595.262	267.81
595.472	225.81
595.681	260.81
595.89	265.81
596.1	244.81
596.309	245.81
596.518	229.81
596.727	245.81
596.937	219.81
597.146	226.81
597.355	222.81
597.564	235.81
597.774	232.81
597.983	228.81
598.192	230.81
598.401	232.81
598.61	227.81
598.819	224.81
599.028	214.81
599.237	207.81
599.446	219.81
599.655	237.81
599.864	202.81
600.073	209.81
600.282	229.81
600.491	216.81
600.7	203.81
600.909	208.81
601.118	195.81
601.327	209.81
601.536	224.81
601.745	228.81
601.953	219.81
602.162	216.81
602.371	212.81
602.58	216.81
602.789	210.81
602.997	212.81
603.206	225.81
603.415	200.81
603.623	200.81
603.832	203.81
604.041	186.81
604.249	186.81
604.458	210.81
604.666	201.81
604.875	185.81
605.084	197.81
605.292	204.81
605.501	206.81
605.709	192.81
605.918	197.81
606.126	202.81
606.334	207.81
606.543	196.81
606.751	222.81
606.96	192.81
607.168	200.81
607.376	199.81
607.585	189.81
607.793	190.81
608.001	199.81
608.21	190.81
608.418	212.81
608.626	214.81
608.834	198.81
609.043	190.81
609.251	218.81
609.459	184.81
609.667	190.81
609.875	170.81
610.083	212.81
610.291	197.81
610.499	192.81
610.707	194.81
610.916	192.81
611.124	208.81
611.332	210.81
611.54	210.81
611.748	214.81
611.955	210.81
612.163	189.81
612.371	204.81
612.579	190.81
612.787	196.81
612.995	198.81
613.203	200.81
613.411	191.81
613.618	202.81
613.826	188.81
614.034	193.81
614.242	212.81
614.449	186.81
614.657	195.81
614.865	201.81
615.072	215.81
615.28	199.81
615.488	191.81
615.695	205.81
615.903	203.81
616.111	189.81
616.318	197.81
616.526	199.81
616.733	202.81
616.941	181.81
617.148	196.81
617.356	190.81
617.563	188.81
617.771	174.81
617.978	200.81
618.185	207.81
618.393	192.81
618.6	198.81
618.807	198.81
619.015	185.81
619.222	189.81
619.429	192.81
619.637	200.81
619.844	195.81
620.051	182.81
620.258	178.81
620.466	179.81
620.673	187.81
620.88	191.81
621.087	194.81
621.294	178.81
621.501	177.81
621.708	182.81
621.915	174.81
622.122	186.81
622.329	190.81
622.536	180.81
622.743	186.81
622.95	189.81
623.157	180.81
623.364	210.81
623.571	189.81
623.778	176.81
623.985	189.81
624.192	197.81
624.399	179.81
624.606	184.81
624.812	185.81
625.019	175.81
625.226	183.81
625.433	168.81
625.639	178.81
625.846	196.81
626.053	168.81
626.259	185.81
626.466	170.81
626.673	172.81
626.879	177.81
627.086	180.81
627.293	179.81
627.499	176.81
627.706	173.81
627.912	160.81
628.119	168.81
628.325	192.81
628.532	164.81
628.738	174.81
628.945	173.81
629.151	164.81
629.357	173.81
629.564	158.81
629.77	162.81
629.976	157.81
630.183	163.81
630.389	196.81
630.595	160.81
630.802	173.81
631.008	160.81
631.214	176.81
631.42	182.81
631.627	170.81
631.833	164.81
632.039	168.81
632.245	146.81
632.451	155.81
632.657	163.81
632.863	172.81
633.069	169.81
633.275	166.81
633.481	168.81
633.688	159.81
633.893	167.81
634.099	173.81
634.305	185.81
634.511	178.81
634.717	156.81
634.923	150.81
635.129	151.81
635.335	161.81
635.541	160.81
635.747	165.81
635.952	159.81
636.158	149.81
636.364	144.81
636.57	161.81
636.775	159.81
636.981	162.81
637.187	161.81
637.392	161.81
637.598	145.81
637.804	152.81
638.009	162.81
638.215	172.81
638.421	156.81
638.626	156.81
638.832	155.81
639.037	143.81
639.243	149.81
639.448	155.81
639.654	165.81
639.859	143.81
640.065	143.81
640.27	166.81
640.475	156.81
640.681	156.81
640.886	146.81
641.091	165.81
641.297	153.81
641.502	159.81
641.707	140.81
641.913	141.81
642.118	152.81
642.323	132.81
642.528	159.81
642.733	146.81
642.939	152.81
643.144	145.81
643.349	148.81
643.554	153.81
643.759	153.81
643.964	132.81
644.169	150.81
644.374	143.81
644.579	140.81
644.784	135.81
644.989	140.81
645.194	133.81
645.399	145.81
645.604	137.81
645.809	151.81
646.014	162.81
646.219	136.81
646.423	136.81
646.628	149.81
646.833	150.81
647.038	144.81
647.243	143.81
647.447	142.81
647.652	144.81
647.857	149.81
648.062	144.81
648.266	150.81
648.471	154.81
648.676	155.81
648.88	137.81
649.085	156.81
649.289	156.81
649.494	149.81
649.698	160.81
649.903	158.81
650.107	148.81
650.312	160.81
650.516	123.81
650.721	138.81
650.925	125.81
651.13	141.81
651.334	149.81
651.539	132.81
651.743	122.81
651.947	124.81
652.152	139.81
652.356	121.81
652.56	113.81
652.764	132.81
652.969	133.81
653.173	126.81
653.377	132.81
653.581	128.81
653.785	129.81
653.99	131.81
654.194	146.81
654.398	128.81
654.602	126.81
654.806	130.81
655.01	136.81
655.214	133.81
655.418	130.81
655.622	128.81
655.826	118.81
656.03	115.81
656.234	129.81
656.438	120.81
656.642	123.81
656.846	130.81
657.049	124.81
657.253	119.81
657.457	115.81
657.661	115.81
657.865	104.81
658.068	108.81
658.272	124.81
658.476	98.81
658.68	100.81
658.883	90.81
659.087	101.81
659.291	106.81
659.494	94.81
659.698	94.81
659.901	101.81
660.105	85.81
660.309	83.81
660.512	84.81
660.716	99.81
660.919	92.81
661.123	92.81
661.326	93.81
661.53	83.81
661.733	93.81
661.936	100.81
662.14	93.81
662.343	89.81
662.546	94.81
662.75	85.81
662.953	76.81
663.156	88.81
663.36	82.81
663.563	93.81
663.766	81.81
663.969	71.81
664.173	88.81
664.376	81.81
664.579	83.81
664.782	78.81
664.985	87.81
665.188	77.81
665.391	84.81
665.594	85.81
665.797	85.81
666	81.81
666.203	90.81
666.406	83.81
666.609	93.81
666.812	96.81
667.015	80.81
667.218	90.81
667.421	89.81
667.624	87.81
667.827	91.81
668.03	82.81
668.232	78.81
668.435	79.81
668.638	83.81
668.841	89.81
669.043	80.81
669.246	86.81
669.449	90.81
669.651	89.81
669.854	86.81
670.057	82.81
670.259	82.81
670.462	94.81
670.665	86.81
670.867	66.81
671.07	80.81
671.272	83.81
671.475	84.81
671.677	87.81
671.88	85.81
672.082	75.81
672.284	85.81
672.487	78.81
672.689	85.81
672.892	88.81
