Data from 1977.PennyLincolnUp.Lamp.En5.5.200Scan.071719.P1_HRD10591_16-07-30-864.txt Node
Date: Thu Jul 18 16:07:30 EDT 2019
User: cochatt
Spectrometer: HR+D1059
Trigger mode: 1
Integration Time (sec): 1.000000E-1
Scans to average: 1
Electric dark correction enabled: true
Nonlinearity correction enabled: false
Boxcar width: 0
XAxis mode: Wavelengths
Number of Pixels in Spectrum: 2048
>>>>>Begin Spectral Data<<<<<
223.165	-8.5
223.4	-8.5
223.635	-8.5
223.869	-27.5
224.104	-18.5
224.338	-14.5
224.573	-8.5
224.808	-9.5
225.042	-2.5
225.277	-13.5
225.511	-3.5
225.746	3.5
225.98	-7.5
226.215	11.5
226.449	20.5
226.683	9.5
226.918	29.5
227.152	39.5
227.387	40.5
227.621	30.5
227.856	53.5
228.09	42.5
228.324	41.5
228.559	53.5
228.793	69.5
229.027	98.5
229.262	105.5
229.496	116.5
229.73	132.5
229.964	136.5
230.199	119.5
230.433	106.5
230.667	113.5
230.901	107.5
231.136	111.5
231.37	111.5
231.604	111.5
231.838	123.5
232.072	102.5
232.306	106.5
232.541	97.5
232.775	109.5
233.009	126.5
233.243	128.5
233.477	106.5
233.711	103.5
233.945	112.5
234.179	119.5
234.413	125.5
234.647	124.5
234.881	107.5
235.115	115.5
235.349	125.5
235.583	107.5
235.817	118.5
236.051	123.5
236.285	116.5
236.519	121.5
236.753	138.5
236.987	138.5
237.221	169.5
237.455	213.5
237.689	158.5
237.922	142.5
238.156	127.5
238.39	126.5
238.624	137.5
238.858	115.5
239.091	123.5
239.325	129.5
239.559	123.5
239.793	122.5
240.027	141.5
240.26	143.5
240.494	156.5
240.728	149.5
240.961	149.5
241.195	150.5
241.429	121.5
241.662	136.5
241.896	138.5
242.13	140.5
242.363	150.5
242.597	132.5
242.83	146.5
243.064	132.5
243.298	137.5
243.531	144.5
243.765	144.5
243.998	140.5
244.232	159.5
244.465	141.5
244.699	145.5
244.932	148.5
245.166	156.5
245.399	145.5
245.633	133.5
245.866	148.5
246.099	157.5
246.333	152.5
246.566	158.5
246.8	138.5
247.033	164.5
247.266	152.5
247.5	163.5
247.733	139.5
247.966	180.5
248.2	160.5
248.433	179.5
248.666	184.5
248.899	174.5
249.133	193.5
249.366	196.5
249.599	189.5
249.832	173.5
250.066	181.5
250.299	184.5
250.532	195.5
250.765	195.5
250.998	212.5
251.231	218.5
251.465	214.5
251.698	196.5
251.931	208.5
252.164	206.5
252.397	194.5
252.63	199.5
252.863	197.5
253.096	233.5
253.329	226.5
253.562	207.5
253.795	240.5
254.028	217.5
254.261	217.5
254.494	205.5
254.727	257.5
254.96	255.5
255.193	239.5
255.426	242.5
255.659	216.5
255.892	239.5
256.124	220.5
256.357	219.5
256.59	204.5
256.823	219.5
257.056	203.5
257.289	215.5
257.521	220.5
257.754	212.5
257.987	218.5
258.22	209.5
258.452	213.5
258.685	222.5
258.918	215.5
259.151	211.5
259.383	217.5
259.616	232.5
259.849	239.5
260.081	228.5
260.314	257.5
260.547	271.5
260.779	255.5
261.012	248.5
261.244	251.5
261.477	237.5
261.71	219.5
261.942	219.5
262.175	226.5
262.407	225.5
262.64	212.5
262.872	207.5
263.105	209.5
263.337	228.5
263.57	240.5
263.802	239.5
264.035	232.5
264.267	222.5
264.499	212.5
264.732	230.5
264.964	222.5
265.197	220.5
265.429	215.5
265.661	213.5
265.894	224.5
266.126	232.5
266.358	235.5
266.591	227.5
266.823	243.5
267.055	237.5
267.287	265.5
267.52	239.5
267.752	235.5
267.984	250.5
268.216	245.5
268.448	231.5
268.681	225.5
268.913	252.5
269.145	275.5
269.377	300.5
269.609	299.5
269.841	283.5
270.073	278.5
270.306	291.5
270.538	302.5
270.77	308.5
271.002	298.5
271.234	292.5
271.466	314.5
271.698	315.5
271.93	321.5
272.162	342.5
272.394	295.5
272.626	329.5
272.858	313.5
273.09	312.5
273.322	285.5
273.553	274.5
273.785	288.5
274.017	261.5
274.249	271.5
274.481	275.5
274.713	259.5
274.945	291.5
275.176	273.5
275.408	270.5
275.64	275.5
275.872	263.5
276.104	259.5
276.335	259.5
276.567	274.5
276.799	279.5
277.031	307.5
277.262	329.5
277.494	307.5
277.726	297.5
277.957	309.5
278.189	295.5
278.421	259.5
278.652	277.5
278.884	287.5
279.115	286.5
279.347	293.5
279.579	298.5
279.81	295.5
280.042	304.5
280.273	295.5
280.505	287.5
280.736	281.5
280.968	283.5
281.199	281.5
281.431	295.5
281.662	288.5
281.894	305.5
282.125	303.5
282.356	311.5
282.588	305.5
282.819	322.5
283.051	284.5
283.282	300.5
283.513	277.5
283.745	294.5
283.976	305.5
284.207	291.5
284.439	306.5
284.67	299.5
284.901	319.5
285.132	305.5
285.364	300.5
285.595	299.5
285.826	305.5
286.057	312.5
286.288	310.5
286.52	306.5
286.751	308.5
286.982	297.5
287.213	300.5
287.444	319.5
287.675	316.5
287.906	305.5
288.138	330.5
288.369	300.5
288.6	322.5
288.831	336.5
289.062	316.5
289.293	322.5
289.524	328.5
289.755	330.5
289.986	326.5
290.217	308.5
290.448	294.5
290.679	329.5
290.91	312.5
291.141	299.5
291.371	317.5
291.602	328.5
291.833	322.5
292.064	320.5
292.295	311.5
292.526	315.5
292.757	314.5
292.987	317.5
293.218	316.5
293.449	332.5
293.68	326.5
293.91	310.5
294.141	309.5
294.372	303.5
294.603	320.5
294.833	328.5
295.064	301.5
295.295	331.5
295.525	319.5
295.756	345.5
295.987	338.5
296.217	346.5
296.448	353.5
296.679	341.5
296.909	323.5
297.14	317.5
297.37	325.5
297.601	311.5
297.831	347.5
298.062	337.5
298.292	321.5
298.523	328.5
298.753	328.5
298.984	320.5
299.214	324.5
299.445	323.5
299.675	328.5
299.905	341.5
300.136	328.5
300.366	340.5
300.597	335.5
300.827	348.5
301.057	344.5
301.288	346.5
301.518	333.5
301.748	356.5
301.979	349.5
302.209	338.5
302.439	355.5
302.669	369.5
302.9	361.5
303.13	360.5
303.36	359.5
303.59	361.5
303.82	359.5
304.051	337.5
304.281	359.5
304.511	364.5
304.741	346.5
304.971	336.5
305.201	347.5
305.431	356.5
305.661	345.5
305.891	364.5
306.121	344.5
306.352	351.5
306.582	350.5
306.812	362.5
307.042	357.5
307.272	357.5
307.502	360.5
307.731	351.5
307.961	384.5
308.191	367.5
308.421	365.5
308.651	376.5
308.881	351.5
309.111	365.5
309.341	375.5
309.571	383.5
309.8	364.5
310.03	379.5
310.26	388.5
310.49	425.5
310.72	396.5
310.949	378.5
311.179	397.5
311.409	387.5
311.639	397.5
311.868	376.5
312.098	390.5
312.328	405.5
312.557	406.5
312.787	392.5
313.017	404.5
313.246	409.5
313.476	397.5
313.706	412.5
313.935	396.5
314.165	403.5
314.394	420.5
314.624	428.5
314.853	401.5
315.083	400.5
315.312	404.5
315.542	405.5
315.771	389.5
316.001	406.5
316.23	397.5
316.46	387.5
316.689	415.5
316.919	397.5
317.148	394.5
317.377	403.5
317.607	396.5
317.836	403.5
318.065	426.5
318.295	404.5
318.524	404.5
318.753	384.5
318.983	388.5
319.212	406.5
319.441	409.5
319.67	416.5
319.9	430.5
320.129	401.5
320.358	407.5
320.587	408.5
320.816	402.5
321.046	430.5
321.275	416.5
321.504	408.5
321.733	418.5
321.962	428.5
322.191	408.5
322.42	453.5
322.649	454.5
322.878	455.5
323.108	464.5
323.337	476.5
323.566	486.5
323.795	507.5
324.024	531.5
324.253	635.5
324.482	891.5
324.71	1344.5
324.939	1851.5
325.168	1627.5
325.397	846.5
325.626	634.5
325.855	541.5
326.084	498.5
326.313	524.5
326.542	512.5
326.77	541.5
326.999	653.5
327.228	832.5
327.457	1182.5
327.686	1389.5
327.914	945.5
328.143	681.5
328.372	593.5
328.6	545.5
328.829	542.5
329.058	571.5
329.287	570.5
329.515	534.5
329.744	500.5
329.972	493.5
330.201	523.5
330.43	544.5
330.658	569.5
330.887	587.5
331.115	567.5
331.344	526.5
331.572	494.5
331.801	500.5
332.03	503.5
332.258	481.5
332.486	473.5
332.715	445.5
332.943	480.5
333.172	481.5
333.4	506.5
333.629	492.5
333.857	499.5
334.085	528.5
334.314	530.5
334.542	529.5
334.771	535.5
334.999	510.5
335.227	495.5
335.455	491.5
335.684	485.5
335.912	500.5
336.14	462.5
336.369	490.5
336.597	479.5
336.825	478.5
337.053	467.5
337.281	461.5
337.51	469.5
337.738	470.5
337.966	479.5
338.194	471.5
338.422	471.5
338.65	470.5
338.878	463.5
339.106	466.5
339.334	451.5
339.562	442.5
339.79	459.5
340.018	447.5
340.246	449.5
340.474	454.5
340.702	473.5
340.93	448.5
341.158	439.5
341.386	469.5
341.614	444.5
341.842	428.5
342.07	439.5
342.298	431.5
342.526	426.5
342.754	431.5
342.981	440.5
343.209	435.5
343.437	445.5
343.665	456.5
343.893	493.5
344.12	458.5
344.348	457.5
344.576	476.5
344.804	455.5
345.031	469.5
345.259	468.5
345.487	463.5
345.714	444.5
345.942	434.5
346.17	426.5
346.397	421.5
346.625	421.5
346.853	428.5
347.08	429.5
347.308	428.5
347.535	435.5
347.763	426.5
347.99	444.5
348.218	441.5
348.445	441.5
348.673	425.5
348.9	416.5
349.128	398.5
349.355	436.5
349.583	423.5
349.81	403.5
350.037	419.5
350.265	415.5
350.492	421.5
350.72	416.5
350.947	419.5
351.174	429.5
351.402	428.5
351.629	423.5
351.856	424.5
352.083	424.5
352.311	438.5
352.538	437.5
352.765	416.5
352.992	407.5
353.22	426.5
353.447	406.5
353.674	396.5
353.901	409.5
354.128	387.5
354.355	395.5
354.583	406.5
354.81	401.5
355.037	395.5
355.264	404.5
355.491	409.5
355.718	403.5
355.945	411.5
356.172	400.5
356.399	412.5
356.626	379.5
356.853	401.5
357.08	385.5
357.307	396.5
357.534	401.5
357.761	394.5
357.988	380.5
358.215	381.5
358.441	411.5
358.668	404.5
358.895	393.5
359.122	410.5
359.349	412.5
359.576	414.5
359.802	450.5
360.029	430.5
360.256	433.5
360.483	453.5
360.709	407.5
360.936	413.5
361.163	403.5
361.39	397.5
361.616	397.5
361.843	399.5
362.07	399.5
362.296	405.5
362.523	392.5
362.749	411.5
362.976	397.5
363.203	417.5
363.429	419.5
363.656	422.5
363.882	403.5
364.109	403.5
364.335	419.5
364.562	396.5
364.788	397.5
365.015	417.5
365.241	403.5
365.468	400.5
365.694	401.5
365.92	387.5
366.147	387.5
366.373	386.5
366.599	396.5
366.826	387.5
367.052	383.5
367.278	403.5
367.505	391.5
367.731	407.5
367.957	398.5
368.184	384.5
368.41	399.5
368.636	418.5
368.862	406.5
369.089	420.5
369.315	404.5
369.541	390.5
369.767	392.5
369.993	412.5
370.219	400.5
370.445	402.5
370.672	388.5
370.898	404.5
371.124	403.5
371.35	397.5
371.576	392.5
371.802	401.5
372.028	409.5
372.254	383.5
372.48	399.5
372.706	408.5
372.932	404.5
373.158	409.5
373.384	404.5
373.61	398.5
373.835	419.5
374.061	389.5
374.287	415.5
374.513	402.5
374.739	394.5
374.965	400.5
375.191	412.5
375.416	416.5
375.642	417.5
375.868	397.5
376.094	392.5
376.319	407.5
376.545	391.5
376.771	380.5
376.997	372.5
377.222	394.5
377.448	385.5
377.674	384.5
377.899	390.5
378.125	398.5
378.35	399.5
378.576	408.5
378.802	392.5
379.027	416.5
379.253	377.5
379.478	386.5
379.704	403.5
379.929	412.5
380.155	401.5
380.38	400.5
380.606	396.5
380.831	408.5
381.057	379.5
381.282	407.5
381.507	386.5
381.733	415.5
381.958	389.5
382.184	384.5
382.409	385.5
382.634	383.5
382.86	410.5
383.085	413.5
383.31	415.5
383.535	423.5
383.761	383.5
383.986	431.5
384.211	425.5
384.436	414.5
384.662	439.5
384.887	416.5
385.112	431.5
385.337	428.5
385.562	425.5
385.787	428.5
386.013	441.5
386.238	427.5
386.463	426.5
386.688	435.5
386.913	423.5
387.138	422.5
387.363	439.5
387.588	441.5
387.813	432.5
388.038	439.5
388.263	422.5
388.488	433.5
388.713	421.5
388.938	451.5
389.163	409.5
389.387	409.5
389.612	412.5
389.837	440.5
390.062	437.5
390.287	435.5
390.512	418.5
390.736	420.5
390.961	423.5
391.186	424.5
391.411	446.5
391.636	436.5
391.86	444.5
392.085	441.5
392.31	433.5
392.534	441.5
392.759	424.5
392.984	422.5
393.208	414.5
393.433	431.5
393.658	427.5
393.882	453.5
394.107	440.5
394.331	428.5
394.556	426.5
394.78	421.5
395.005	459.5
395.229	439.5
395.454	456.5
395.678	453.5
395.903	464.5
396.127	480.5
396.352	491.5
396.576	467.5
396.801	437.5
397.025	467.5
397.249	461.5
397.474	465.5
397.698	455.5
397.922	476.5
398.147	489.5
398.371	497.5
398.595	493.5
398.82	499.5
399.044	495.5
399.268	534.5
399.492	566.5
399.717	611.5
399.941	635.5
400.165	618.5
400.389	602.5
400.613	568.5
400.837	522.5
401.062	515.5
401.286	520.5
401.51	495.5
401.734	496.5
401.958	493.5
402.182	516.5
402.406	486.5
402.63	500.5
402.854	479.5
403.078	506.5
403.302	500.5
403.526	520.5
403.75	533.5
403.974	514.5
404.198	507.5
404.422	513.5
404.645	525.5
404.869	521.5
405.093	545.5
405.317	577.5
405.541	609.5
405.765	571.5
405.988	545.5
406.212	548.5
406.436	537.5
406.66	565.5
406.883	535.5
407.107	553.5
407.331	615.5
407.555	659.5
407.778	646.5
408.002	609.5
408.226	580.5
408.449	570.5
408.673	571.5
408.896	573.5
409.12	604.5
409.344	596.5
409.567	552.5
409.791	522.5
410.014	535.5
410.238	527.5
410.461	515.5
410.685	523.5
410.908	531.5
411.132	531.5
411.355	560.5
411.578	547.5
411.802	513.5
412.025	492.5
412.249	521.5
412.472	535.5
412.695	557.5
412.919	541.5
413.142	517.5
413.365	509.5
413.589	492.5
413.812	481.5
414.035	499.5
414.258	457.5
414.482	500.5
414.705	497.5
414.928	482.5
415.151	480.5
415.374	472.5
415.597	471.5
415.821	472.5
416.044	478.5
416.267	473.5
416.49	479.5
416.713	466.5
416.936	448.5
417.159	491.5
417.382	480.5
417.605	478.5
417.828	488.5
418.051	479.5
418.274	486.5
418.497	484.5
418.72	468.5
418.943	469.5
419.166	495.5
419.389	499.5
419.611	531.5
419.834	498.5
420.057	499.5
420.28	494.5
420.503	499.5
420.726	496.5
420.948	512.5
421.171	553.5
421.394	560.5
421.617	491.5
421.839	489.5
422.062	491.5
422.285	509.5
422.507	551.5
422.73	627.5
422.953	603.5
423.175	508.5
423.398	522.5
423.621	532.5
423.843	544.5
424.066	561.5
424.288	531.5
424.511	545.5
424.733	593.5
424.956	646.5
425.178	613.5
425.401	613.5
425.623	634.5
425.846	578.5
426.068	531.5
426.291	506.5
426.513	533.5
426.735	560.5
426.958	563.5
427.18	607.5
427.402	753.5
427.625	813.5
427.847	677.5
428.069	598.5
428.292	544.5
428.514	515.5
428.736	485.5
428.958	491.5
429.181	473.5
429.403	460.5
429.625	468.5
429.847	511.5
430.069	584.5
430.292	568.5
430.514	500.5
430.736	487.5
430.958	472.5
431.18	478.5
431.402	457.5
431.624	473.5
431.846	455.5
432.068	451.5
432.29	443.5
432.512	439.5
432.734	450.5
432.956	484.5
433.178	461.5
433.4	449.5
433.622	466.5
433.844	453.5
434.066	449.5
434.287	432.5
434.509	461.5
434.731	455.5
434.953	463.5
435.175	522.5
435.397	529.5
435.618	521.5
435.84	544.5
436.062	652.5
436.284	701.5
436.505	561.5
436.727	516.5
436.949	475.5
437.17	476.5
437.392	495.5
437.614	466.5
437.835	507.5
438.057	594.5
438.278	676.5
438.5	685.5
438.721	733.5
438.943	717.5
439.165	576.5
439.386	534.5
439.608	509.5
439.829	520.5
440.05	542.5
440.272	579.5
440.493	536.5
440.715	512.5
440.936	466.5
441.158	488.5
441.379	485.5
441.6	501.5
441.822	500.5
442.043	548.5
442.264	620.5
442.486	685.5
442.707	587.5
442.928	539.5
443.149	531.5
443.371	547.5
443.592	578.5
443.813	683.5
444.034	707.5
444.255	585.5
444.476	571.5
444.698	547.5
444.919	546.5
445.14	641.5
445.361	577.5
445.582	548.5
445.803	602.5
446.024	673.5
446.245	666.5
446.466	611.5
446.687	554.5
446.908	527.5
447.129	480.5
447.35	460.5
447.571	490.5
447.792	474.5
448.013	485.5
448.234	481.5
448.455	517.5
448.675	624.5
448.896	733.5
449.117	606.5
449.338	593.5
449.559	668.5
449.779	771.5
450	600.5
450.221	504.5
450.442	499.5
450.662	456.5
450.883	472.5
451.104	473.5
451.324	462.5
451.545	435.5
451.766	432.5
451.986	417.5
452.207	424.5
452.428	410.5
452.648	419.5
452.869	405.5
453.089	441.5
453.31	415.5
453.53	400.5
453.751	407.5
453.971	433.5
454.192	434.5
454.412	430.5
454.633	404.5
454.853	406.5
455.073	403.5
455.294	436.5
455.514	493.5
455.734	477.5
455.955	420.5
456.175	400.5
456.395	393.5
456.616	388.5
456.836	389.5
457.056	392.5
457.276	381.5
457.497	399.5
457.717	401.5
457.937	412.5
458.157	404.5
458.377	420.5
458.598	429.5
458.818	484.5
459.038	528.5
459.258	541.5
459.478	496.5
459.698	457.5
459.918	436.5
460.138	463.5
460.358	475.5
460.578	483.5
460.798	469.5
461.018	467.5
461.238	450.5
461.458	461.5
461.678	456.5
461.898	451.5
462.118	492.5
462.338	502.5
462.558	508.5
462.777	484.5
462.997	519.5
463.217	520.5
463.437	521.5
463.657	516.5
463.876	501.5
464.096	489.5
464.316	484.5
464.536	492.5
464.755	480.5
464.975	495.5
465.195	528.5
465.414	528.5
465.634	485.5
465.854	481.5
466.073	464.5
466.293	431.5
466.512	425.5
466.732	439.5
466.951	443.5
467.171	418.5
467.391	420.5
467.61	443.5
467.829	425.5
468.049	457.5
468.268	427.5
468.488	429.5
468.707	421.5
468.927	414.5
469.146	419.5
469.365	417.5
469.585	420.5
469.804	423.5
470.023	446.5
470.243	470.5
470.462	451.5
470.681	460.5
470.901	455.5
471.12	424.5
471.339	448.5
471.558	457.5
471.777	431.5
471.997	420.5
472.216	401.5
472.435	440.5
472.654	427.5
472.873	430.5
473.092	415.5
473.311	413.5
473.53	421.5
473.749	427.5
473.968	474.5
474.187	553.5
474.406	567.5
474.625	469.5
474.844	461.5
475.063	463.5
475.282	443.5
475.501	445.5
475.72	424.5
475.939	450.5
476.158	449.5
476.377	456.5
476.596	448.5
476.814	432.5
477.033	442.5
477.252	471.5
477.471	460.5
477.69	459.5
477.908	444.5
478.127	470.5
478.346	472.5
478.564	487.5
478.783	492.5
479.002	486.5
479.22	489.5
479.439	495.5
479.658	511.5
479.876	513.5
480.095	542.5
480.313	544.5
480.532	540.5
480.751	509.5
480.969	524.5
481.188	580.5
481.406	580.5
481.624	552.5
481.843	510.5
482.061	488.5
482.28	491.5
482.498	503.5
482.717	511.5
482.935	505.5
483.153	491.5
483.372	498.5
483.59	497.5
483.808	492.5
484.027	504.5
484.245	509.5
484.463	504.5
484.681	509.5
484.9	511.5
485.118	498.5
485.336	508.5
485.554	515.5
485.772	501.5
485.99	512.5
486.209	523.5
486.427	542.5
486.645	520.5
486.863	542.5
487.081	534.5
487.299	536.5
487.517	525.5
487.735	533.5
487.953	539.5
488.171	517.5
488.389	518.5
488.607	513.5
488.825	517.5
489.043	539.5
489.261	545.5
489.479	539.5
489.696	552.5
489.914	543.5
490.132	559.5
490.35	539.5
490.568	553.5
490.786	569.5
491.003	577.5
491.221	564.5
491.439	588.5
491.657	605.5
491.874	604.5
492.092	592.5
492.31	607.5
492.527	606.5
492.745	596.5
492.963	595.5
493.18	589.5
493.398	605.5
493.615	612.5
493.833	601.5
494.05	594.5
494.268	621.5
494.485	614.5
494.703	627.5
494.92	620.5
495.138	628.5
495.355	609.5
495.573	611.5
495.79	614.5
496.008	627.5
496.225	629.5
496.442	626.5
496.66	620.5
496.877	613.5
497.094	648.5
497.312	639.5
497.529	675.5
497.746	661.5
497.963	697.5
498.181	704.5
498.398	705.5
498.615	720.5
498.832	705.5
499.049	750.5
499.267	787.5
499.484	796.5
499.701	842.5
499.918	858.5
500.135	882.5
500.352	963.5
500.569	947.5
500.786	964.5
501.003	971.5
501.22	908.5
501.437	909.5
501.654	844.5
501.871	810.5
502.088	801.5
502.305	740.5
502.522	730.5
502.739	705.5
502.956	695.5
503.172	657.5
503.389	666.5
503.606	665.5
503.823	655.5
504.04	636.5
504.256	649.5
504.473	644.5
504.69	633.5
504.907	642.5
505.123	598.5
505.34	621.5
505.557	588.5
505.773	597.5
505.99	593.5
506.207	584.5
506.423	594.5
506.64	579.5
506.856	571.5
507.073	612.5
507.289	571.5
507.506	554.5
507.722	577.5
507.939	583.5
508.155	566.5
508.372	564.5
508.588	538.5
508.805	562.5
509.021	566.5
509.238	561.5
509.454	563.5
509.67	553.5
509.887	563.5
510.103	562.5
510.319	548.5
510.536	613.5
510.752	903.5
510.968	762.5
511.184	553.5
511.401	537.5
511.617	514.5
511.833	518.5
512.049	537.5
512.265	537.5
512.481	528.5
512.698	524.5
512.914	532.5
513.13	507.5
513.346	526.5
513.562	524.5
513.778	529.5
513.994	534.5
514.21	531.5
514.426	574.5
514.642	543.5
514.858	578.5
515.074	611.5
515.29	695.5
515.506	887.5
515.721	721.5
515.937	583.5
516.153	574.5
516.369	561.5
516.585	561.5
516.801	552.5
517.016	556.5
517.232	556.5
517.448	550.5
517.664	554.5
517.879	574.5
518.095	551.5
518.311	560.5
518.527	551.5
518.742	559.5
518.958	543.5
519.173	531.5
519.389	545.5
519.605	519.5
519.82	529.5
520.036	551.5
520.251	568.5
520.467	545.5
520.682	553.5
520.898	553.5
521.113	570.5
521.329	586.5
521.544	627.5
521.76	718.5
521.975	1108.5
522.19	1075.5
522.406	679.5
522.621	563.5
522.836	537.5
523.052	501.5
523.267	507.5
523.482	484.5
523.698	481.5
523.913	471.5
524.128	482.5
524.343	492.5
524.559	465.5
524.774	455.5
524.989	467.5
525.204	449.5
525.419	453.5
525.634	440.5
525.849	459.5
526.064	434.5
526.28	452.5
526.495	436.5
526.71	447.5
526.925	435.5
527.14	423.5
527.355	419.5
527.57	424.5
527.785	431.5
527.999	413.5
528.214	427.5
528.429	450.5
528.644	432.5
528.859	442.5
529.074	446.5
529.289	438.5
529.503	481.5
529.718	490.5
529.933	451.5
530.148	438.5
530.363	434.5
530.577	438.5
530.792	423.5
531.007	421.5
531.221	420.5
531.436	434.5
531.651	431.5
531.865	429.5
532.08	414.5
532.295	423.5
532.509	419.5
532.724	415.5
532.938	400.5
533.153	431.5
533.367	417.5
533.582	445.5
533.796	385.5
534.011	429.5
534.225	432.5
534.44	427.5
534.654	415.5
534.868	435.5
535.083	393.5
535.297	408.5
535.511	418.5
535.726	410.5
535.94	420.5
536.154	413.5
536.369	412.5
536.583	406.5
536.797	407.5
537.011	387.5
537.225	402.5
537.44	385.5
537.654	383.5
537.868	403.5
538.082	419.5
538.296	391.5
538.51	400.5
538.724	428.5
538.938	403.5
539.153	393.5
539.367	400.5
539.581	392.5
539.795	403.5
540.009	416.5
540.222	406.5
540.436	411.5
540.65	417.5
540.864	396.5
541.078	387.5
541.292	412.5
541.506	398.5
541.72	392.5
541.934	396.5
542.147	412.5
542.361	407.5
542.575	372.5
542.789	390.5
543.002	375.5
543.216	406.5
543.43	392.5
543.644	402.5
543.857	381.5
544.071	407.5
544.285	405.5
544.498	381.5
544.712	387.5
544.925	403.5
545.139	388.5
545.352	399.5
545.566	387.5
545.779	388.5
545.993	395.5
546.206	415.5
546.42	403.5
546.633	394.5
546.847	403.5
547.06	379.5
547.274	387.5
547.487	376.5
547.7	397.5
547.914	376.5
548.127	385.5
548.34	388.5
548.554	396.5
548.767	418.5
548.98	393.5
549.193	390.5
549.407	377.5
549.62	379.5
549.833	376.5
550.046	379.5
550.259	387.5
550.473	388.5
550.686	381.5
550.899	403.5
551.112	381.5
551.325	387.5
551.538	404.5
551.751	367.5
551.964	379.5
552.177	379.5
552.39	371.5
552.603	406.5
552.816	387.5
553.029	393.5
553.242	383.5
553.455	389.5
553.667	402.5
553.88	405.5
554.093	405.5
554.306	397.5
554.519	394.5
554.732	405.5
554.944	389.5
555.157	373.5
555.37	386.5
555.583	379.5
555.795	362.5
556.008	348.5
556.221	377.5
556.433	352.5
556.646	374.5
556.859	353.5
557.071	347.5
557.284	353.5
557.496	346.5
557.709	348.5
557.921	347.5
558.134	329.5
558.346	339.5
558.559	347.5
558.771	330.5
558.984	338.5
559.196	348.5
559.409	336.5
559.621	347.5
559.833	338.5
560.046	330.5
560.258	342.5
560.47	346.5
560.683	345.5
560.895	312.5
561.107	349.5
561.32	345.5
561.532	332.5
561.744	355.5
561.956	333.5
562.168	332.5
562.381	338.5
562.593	360.5
562.805	327.5
563.017	344.5
563.229	347.5
563.441	356.5
563.653	333.5
563.865	341.5
564.077	351.5
564.289	340.5
564.501	365.5
564.713	373.5
564.925	375.5
565.137	356.5
565.349	373.5
565.561	368.5
565.773	370.5
565.985	376.5
566.197	382.5
566.408	411.5
566.62	437.5
566.832	423.5
567.044	451.5
567.255	442.5
567.467	445.5
567.679	470.5
567.891	458.5
568.102	471.5
568.314	451.5
568.526	435.5
568.737	411.5
568.949	377.5
569.161	381.5
569.372	368.5
569.584	373.5
569.795	368.5
570.007	346.5
570.218	362.5
570.43	353.5
570.641	337.5
570.853	349.5
571.064	343.5
571.276	343.5
571.487	327.5
571.698	336.5
571.91	332.5
572.121	315.5
572.333	322.5
572.544	317.5
572.755	317.5
572.966	324.5
573.178	287.5
573.389	280.5
573.6	299.5
573.811	311.5
574.023	300.5
574.234	294.5
574.445	291.5
574.656	297.5
574.867	305.5
575.078	307.5
575.289	298.5
575.501	303.5
575.712	290.5
575.923	298.5
576.134	277.5
576.345	290.5
576.556	284.5
576.767	271.5
576.978	275.5
577.188	297.5
577.399	279.5
577.61	295.5
577.821	279.5
578.032	296.5
578.243	312.5
578.454	409.5
578.665	333.5
578.875	287.5
579.086	268.5
579.297	273.5
579.508	269.5
579.718	273.5
579.929	287.5
580.14	277.5
580.35	260.5
580.561	275.5
580.772	281.5
580.982	265.5
581.193	269.5
581.403	277.5
581.614	285.5
581.825	263.5
582.035	269.5
582.246	272.5
582.456	272.5
582.667	265.5
582.877	253.5
583.087	259.5
583.298	265.5
583.508	280.5
583.719	259.5
583.929	237.5
584.139	269.5
584.35	245.5
584.56	262.5
584.77	266.5
584.981	262.5
585.191	252.5
585.401	261.5
585.611	257.5
585.821	253.5
586.032	269.5
586.242	290.5
586.452	268.5
586.662	264.5
586.872	241.5
587.082	261.5
587.292	244.5
587.502	259.5
587.713	237.5
587.923	241.5
588.133	258.5
588.343	254.5
588.553	255.5
588.762	248.5
588.972	266.5
589.182	258.5
589.392	257.5
589.602	261.5
589.812	258.5
590.022	257.5
590.232	256.5
590.441	253.5
590.651	265.5
590.861	242.5
591.071	275.5
591.281	260.5
591.49	271.5
591.7	280.5
591.91	256.5
592.119	264.5
592.329	266.5
592.539	265.5
592.748	276.5
592.958	283.5
593.167	274.5
593.377	279.5
593.587	298.5
593.796	267.5
594.006	281.5
594.215	278.5
594.424	300.5
594.634	284.5
594.843	284.5
595.053	266.5
595.262	255.5
595.472	252.5
595.681	257.5
595.89	264.5
596.1	244.5
596.309	267.5
596.518	263.5
596.727	262.5
596.937	257.5
597.146	256.5
597.355	241.5
597.564	242.5
597.774	241.5
597.983	209.5
598.192	236.5
598.401	258.5
598.61	218.5
598.819	234.5
599.028	234.5
599.237	228.5
599.446	218.5
599.655	241.5
599.864	219.5
600.073	235.5
600.282	220.5
600.491	241.5
600.7	232.5
600.909	225.5
601.118	219.5
601.327	217.5
601.536	211.5
601.745	251.5
601.953	228.5
602.162	231.5
602.371	236.5
602.58	222.5
602.789	236.5
602.997	223.5
603.206	217.5
603.415	232.5
603.623	233.5
603.832	220.5
604.041	221.5
604.249	208.5
604.458	215.5
604.666	209.5
604.875	216.5
605.084	230.5
605.292	208.5
605.501	214.5
605.709	216.5
605.918	215.5
606.126	206.5
606.334	213.5
606.543	212.5
606.751	206.5
606.96	211.5
607.168	205.5
607.376	204.5
607.585	207.5
607.793	211.5
608.001	210.5
608.21	208.5
608.418	207.5
608.626	207.5
608.834	213.5
609.043	213.5
609.251	220.5
609.459	201.5
609.667	191.5
609.875	209.5
610.083	212.5
610.291	219.5
610.499	209.5
610.707	203.5
610.916	224.5
611.124	215.5
611.332	227.5
611.54	204.5
611.748	229.5
611.955	218.5
612.163	188.5
612.371	214.5
612.579	192.5
612.787	210.5
612.995	224.5
613.203	198.5
613.411	205.5
613.618	210.5
613.826	213.5
614.034	201.5
614.242	201.5
614.449	194.5
614.657	206.5
614.865	198.5
615.072	208.5
615.28	204.5
615.488	213.5
615.695	212.5
615.903	205.5
616.111	197.5
616.318	215.5
616.526	208.5
616.733	215.5
616.941	202.5
617.148	201.5
617.356	227.5
617.563	195.5
617.771	196.5
617.978	195.5
618.185	202.5
618.393	205.5
618.6	201.5
618.807	196.5
619.015	197.5
619.222	196.5
619.429	211.5
619.637	192.5
619.844	202.5
620.051	205.5
620.258	201.5
620.466	200.5
620.673	188.5
620.88	197.5
621.087	205.5
621.294	205.5
621.501	209.5
621.708	210.5
621.915	188.5
622.122	213.5
622.329	207.5
622.536	201.5
622.743	191.5
622.95	205.5
623.157	199.5
623.364	199.5
623.571	180.5
623.778	191.5
623.985	191.5
624.192	199.5
624.399	183.5
624.606	185.5
624.812	190.5
625.019	168.5
625.226	179.5
625.433	195.5
625.639	181.5
625.846	173.5
626.053	185.5
626.259	177.5
626.466	183.5
626.673	186.5
626.879	172.5
627.086	188.5
627.293	188.5
627.499	182.5
627.706	175.5
627.912	161.5
628.119	169.5
628.325	194.5
628.532	172.5
628.738	175.5
628.945	173.5
629.151	179.5
629.357	172.5
629.564	167.5
629.77	188.5
629.976	185.5
630.183	170.5
630.389	181.5
630.595	167.5
630.802	180.5
631.008	167.5
631.214	172.5
631.42	177.5
631.627	188.5
631.833	167.5
632.039	177.5
632.245	162.5
632.451	187.5
632.657	174.5
632.863	160.5
633.069	162.5
633.275	160.5
633.481	163.5
633.688	162.5
633.893	175.5
634.099	155.5
634.305	149.5
634.511	177.5
634.717	162.5
634.923	164.5
635.129	164.5
635.335	157.5
635.541	167.5
635.747	171.5
635.952	166.5
636.158	155.5
636.364	176.5
636.57	170.5
636.775	167.5
636.981	171.5
637.187	176.5
637.392	178.5
637.598	165.5
637.804	148.5
638.009	163.5
638.215	159.5
638.421	157.5
638.626	159.5
638.832	166.5
639.037	147.5
639.243	170.5
639.448	161.5
639.654	153.5
639.859	141.5
640.065	148.5
640.27	155.5
640.475	160.5
640.681	159.5
640.886	150.5
641.091	155.5
641.297	160.5
641.502	159.5
641.707	150.5
641.913	161.5
642.118	164.5
642.323	140.5
642.528	172.5
642.733	160.5
642.939	150.5
643.144	164.5
643.349	153.5
643.554	160.5
643.759	146.5
643.964	145.5
644.169	142.5
644.374	140.5
644.579	153.5
644.784	165.5
644.989	147.5
645.194	141.5
645.399	141.5
645.604	142.5
645.809	154.5
646.014	159.5
646.219	150.5
646.423	147.5
646.628	153.5
646.833	156.5
647.038	156.5
647.243	166.5
647.447	142.5
647.652	141.5
647.857	148.5
648.062	152.5
648.266	154.5
648.471	155.5
648.676	155.5
648.88	162.5
649.085	144.5
649.289	149.5
649.494	159.5
649.698	169.5
649.903	166.5
650.107	147.5
650.312	156.5
650.516	157.5
650.721	151.5
650.925	153.5
651.13	140.5
651.334	135.5
651.539	146.5
651.743	150.5
651.947	133.5
652.152	148.5
652.356	132.5
652.56	117.5
652.764	133.5
652.969	132.5
653.173	125.5
653.377	145.5
653.581	131.5
653.785	121.5
653.99	124.5
654.194	133.5
654.398	133.5
654.602	133.5
654.806	115.5
655.01	134.5
655.214	129.5
655.418	131.5
655.622	133.5
655.826	119.5
656.03	132.5
656.234	141.5
656.438	124.5
656.642	151.5
656.846	119.5
657.049	127.5
657.253	129.5
657.457	127.5
657.661	120.5
657.865	112.5
658.068	105.5
658.272	98.5
658.476	113.5
658.68	113.5
658.883	108.5
659.087	96.5
659.291	85.5
659.494	89.5
659.698	99.5
659.901	113.5
660.105	107.5
660.309	104.5
660.512	98.5
660.716	95.5
660.919	93.5
661.123	81.5
661.326	94.5
661.53	83.5
661.733	96.5
661.936	100.5
662.14	79.5
662.343	80.5
662.546	81.5
662.75	85.5
662.953	86.5
663.156	69.5
663.36	83.5
663.563	73.5
663.766	80.5
663.969	91.5
664.173	80.5
664.376	85.5
664.579	81.5
664.782	73.5
664.985	84.5
665.188	79.5
665.391	62.5
665.594	77.5
665.797	79.5
666	79.5
666.203	77.5
666.406	83.5
666.609	89.5
666.812	88.5
667.015	89.5
667.218	68.5
667.421	83.5
667.624	80.5
667.827	60.5
668.03	82.5
668.232	82.5
668.435	69.5
668.638	70.5
668.841	73.5
669.043	86.5
669.246	81.5
669.449	84.5
669.651	85.5
669.854	83.5
670.057	88.5
670.259	77.5
670.462	77.5
670.665	74.5
670.867	86.5
671.07	79.5
671.272	83.5
671.475	69.5
671.677	79.5
671.88	73.5
672.082	95.5
672.284	88.5
672.487	83.5
672.689	58.5
672.892	76.5
