Data from 1978.PennyLincolnUp.Lamp.En5.5.200Scan.071719.P1_HRD10591_16-11-40-865.txt Node
Date: Thu Jul 18 16:11:40 EDT 2019
User: cochatt
Spectrometer: HR+D1059
Trigger mode: 1
Integration Time (sec): 1.000000E-1
Scans to average: 1
Electric dark correction enabled: true
Nonlinearity correction enabled: false
Boxcar width: 0
XAxis mode: Wavelengths
Number of Pixels in Spectrum: 2048
>>>>>Begin Spectral Data<<<<<
223.165	-9.5
223.4	-9.5
223.635	-9.5
223.869	-24.5
224.104	-20.5
224.338	-2.5
224.573	-21.5
224.808	-22.5
225.042	-7.5
225.277	-10.5
225.511	-7.5
225.746	4.5
225.98	6.5
226.215	19.5
226.449	10.5
226.683	27.5
226.918	27.5
227.152	30.5
227.387	18.5
227.621	48.5
227.856	41.5
228.09	37.5
228.324	59.5
228.559	43.5
228.793	56.5
229.027	86.5
229.262	96.5
229.496	96.5
229.73	99.5
229.964	136.5
230.199	99.5
230.433	102.5
230.667	97.5
230.901	119.5
231.136	109.5
231.37	108.5
231.604	91.5
231.838	115.5
232.072	84.5
232.306	90.5
232.541	101.5
232.775	110.5
233.009	113.5
233.243	107.5
233.477	100.5
233.711	92.5
233.945	108.5
234.179	100.5
234.413	108.5
234.647	119.5
234.881	112.5
235.115	99.5
235.349	114.5
235.583	96.5
235.817	104.5
236.051	107.5
236.285	120.5
236.519	107.5
236.753	107.5
236.987	123.5
237.221	151.5
237.455	167.5
237.689	139.5
237.922	124.5
238.156	129.5
238.39	128.5
238.624	107.5
238.858	105.5
239.091	108.5
239.325	114.5
239.559	110.5
239.793	118.5
240.027	110.5
240.26	122.5
240.494	118.5
240.728	116.5
240.961	124.5
241.195	103.5
241.429	122.5
241.662	108.5
241.896	101.5
242.13	112.5
242.363	105.5
242.597	132.5
242.83	125.5
243.064	114.5
243.298	102.5
243.531	129.5
243.765	125.5
243.998	120.5
244.232	115.5
244.465	122.5
244.699	125.5
244.932	121.5
245.166	130.5
245.399	132.5
245.633	129.5
245.866	120.5
246.099	126.5
246.333	135.5
246.566	140.5
246.8	135.5
247.033	127.5
247.266	142.5
247.5	134.5
247.733	130.5
247.966	129.5
248.2	129.5
248.433	136.5
248.666	152.5
248.899	163.5
249.133	161.5
249.366	156.5
249.599	150.5
249.832	148.5
250.066	157.5
250.299	142.5
250.532	136.5
250.765	160.5
250.998	157.5
251.231	173.5
251.465	158.5
251.698	156.5
251.931	157.5
252.164	171.5
252.397	146.5
252.63	148.5
252.863	164.5
253.096	157.5
253.329	168.5
253.562	169.5
253.795	163.5
254.028	178.5
254.261	168.5
254.494	152.5
254.727	169.5
254.96	184.5
255.193	182.5
255.426	177.5
255.659	186.5
255.892	171.5
256.124	181.5
256.357	178.5
256.59	172.5
256.823	162.5
257.056	170.5
257.289	177.5
257.521	174.5
257.754	160.5
257.987	181.5
258.22	178.5
258.452	171.5
258.685	165.5
258.918	164.5
259.151	147.5
259.383	168.5
259.616	165.5
259.849	182.5
260.081	189.5
260.314	167.5
260.547	178.5
260.779	184.5
261.012	186.5
261.244	181.5
261.477	174.5
261.71	172.5
261.942	182.5
262.175	173.5
262.407	160.5
262.64	172.5
262.872	171.5
263.105	163.5
263.337	168.5
263.57	173.5
263.802	186.5
264.035	176.5
264.267	168.5
264.499	166.5
264.732	161.5
264.964	176.5
265.197	193.5
265.429	201.5
265.661	184.5
265.894	176.5
266.126	187.5
266.358	181.5
266.591	180.5
266.823	194.5
267.055	160.5
267.287	191.5
267.52	187.5
267.752	183.5
267.984	178.5
268.216	180.5
268.448	196.5
268.681	201.5
268.913	185.5
269.145	198.5
269.377	222.5
269.609	192.5
269.841	196.5
270.073	199.5
270.306	208.5
270.538	227.5
270.77	205.5
271.002	208.5
271.234	200.5
271.466	228.5
271.698	229.5
271.93	241.5
272.162	232.5
272.394	230.5
272.626	224.5
272.858	228.5
273.09	218.5
273.322	221.5
273.553	213.5
273.785	217.5
274.017	197.5
274.249	213.5
274.481	213.5
274.713	205.5
274.945	204.5
275.176	208.5
275.408	227.5
275.64	223.5
275.872	201.5
276.104	222.5
276.335	222.5
276.567	199.5
276.799	216.5
277.031	225.5
277.262	235.5
277.494	224.5
277.726	204.5
277.957	223.5
278.189	212.5
278.421	215.5
278.652	229.5
278.884	219.5
279.115	221.5
279.347	224.5
279.579	217.5
279.81	246.5
280.042	223.5
280.273	218.5
280.505	216.5
280.736	219.5
280.968	231.5
281.199	239.5
281.431	242.5
281.662	237.5
281.894	229.5
282.125	224.5
282.356	215.5
282.588	228.5
282.819	227.5
283.051	232.5
283.282	217.5
283.513	244.5
283.745	236.5
283.976	226.5
284.207	238.5
284.439	225.5
284.67	220.5
284.901	212.5
285.132	224.5
285.364	241.5
285.595	226.5
285.826	221.5
286.057	241.5
286.288	246.5
286.52	232.5
286.751	234.5
286.982	235.5
287.213	229.5
287.444	241.5
287.675	240.5
287.906	245.5
288.138	249.5
288.369	253.5
288.6	242.5
288.831	217.5
289.062	253.5
289.293	234.5
289.524	242.5
289.755	241.5
289.986	228.5
290.217	221.5
290.448	233.5
290.679	228.5
290.91	249.5
291.141	232.5
291.371	240.5
291.602	249.5
291.833	241.5
292.064	230.5
292.295	233.5
292.526	236.5
292.757	258.5
292.987	260.5
293.218	261.5
293.449	250.5
293.68	242.5
293.91	233.5
294.141	241.5
294.372	236.5
294.603	255.5
294.833	263.5
295.064	234.5
295.295	258.5
295.525	248.5
295.756	235.5
295.987	236.5
296.217	268.5
296.448	244.5
296.679	251.5
296.909	245.5
297.14	267.5
297.37	256.5
297.601	242.5
297.831	248.5
298.062	264.5
298.292	265.5
298.523	274.5
298.753	276.5
298.984	241.5
299.214	253.5
299.445	248.5
299.675	269.5
299.905	259.5
300.136	268.5
300.366	259.5
300.597	259.5
300.827	256.5
301.057	277.5
301.288	267.5
301.518	255.5
301.748	257.5
301.979	269.5
302.209	264.5
302.439	259.5
302.669	271.5
302.9	266.5
303.13	268.5
303.36	276.5
303.59	266.5
303.82	262.5
304.051	268.5
304.281	279.5
304.511	280.5
304.741	278.5
304.971	270.5
305.201	280.5
305.431	254.5
305.661	246.5
305.891	265.5
306.121	272.5
306.352	284.5
306.582	273.5
306.812	280.5
307.042	299.5
307.272	280.5
307.502	274.5
307.731	288.5
307.961	271.5
308.191	277.5
308.421	272.5
308.651	294.5
308.881	283.5
309.111	288.5
309.341	289.5
309.571	269.5
309.8	277.5
310.03	286.5
310.26	293.5
310.49	284.5
310.72	301.5
310.949	318.5
311.179	309.5
311.409	302.5
311.639	294.5
311.868	325.5
312.098	274.5
312.328	313.5
312.557	311.5
312.787	288.5
313.017	292.5
313.246	290.5
313.476	288.5
313.706	294.5
313.935	310.5
314.165	308.5
314.394	313.5
314.624	317.5
314.853	310.5
315.083	324.5
315.312	320.5
315.542	313.5
315.771	304.5
316.001	288.5
316.23	322.5
316.46	313.5
316.689	306.5
316.919	308.5
317.148	324.5
317.377	322.5
317.607	297.5
317.836	316.5
318.065	309.5
318.295	297.5
318.524	318.5
318.753	293.5
318.983	305.5
319.212	304.5
319.441	323.5
319.67	323.5
319.9	301.5
320.129	300.5
320.358	302.5
320.587	300.5
320.816	314.5
321.046	327.5
321.275	315.5
321.504	309.5
321.733	309.5
321.962	332.5
322.191	329.5
322.42	324.5
322.649	337.5
322.878	330.5
323.108	345.5
323.337	346.5
323.566	364.5
323.795	357.5
324.024	379.5
324.253	437.5
324.482	550.5
324.71	807.5
324.939	1206.5
325.168	1103.5
325.397	562.5
325.626	412.5
325.855	364.5
326.084	360.5
326.313	354.5
326.542	376.5
326.77	376.5
326.999	410.5
327.228	532.5
327.457	780.5
327.686	951.5
327.914	644.5
328.143	463.5
328.372	417.5
328.6	402.5
328.829	370.5
329.058	383.5
329.287	396.5
329.515	374.5
329.744	364.5
329.972	372.5
330.201	370.5
330.43	376.5
330.658	391.5
330.887	392.5
331.115	427.5
331.344	384.5
331.572	372.5
331.801	362.5
332.03	382.5
332.258	357.5
332.486	376.5
332.715	350.5
332.943	353.5
333.172	362.5
333.4	373.5
333.629	370.5
333.857	371.5
334.085	376.5
334.314	371.5
334.542	395.5
334.771	373.5
334.999	389.5
335.227	382.5
335.455	386.5
335.684	371.5
335.912	366.5
336.14	362.5
336.369	373.5
336.597	383.5
336.825	372.5
337.053	360.5
337.281	364.5
337.51	379.5
337.738	370.5
337.966	376.5
338.194	363.5
338.422	375.5
338.65	350.5
338.878	373.5
339.106	357.5
339.334	354.5
339.562	345.5
339.79	330.5
340.018	354.5
340.246	361.5
340.474	372.5
340.702	369.5
340.93	353.5
341.158	358.5
341.386	380.5
341.614	352.5
341.842	350.5
342.07	364.5
342.298	364.5
342.526	352.5
342.754	368.5
342.981	349.5
343.209	344.5
343.437	357.5
343.665	352.5
343.893	361.5
344.12	377.5
344.348	383.5
344.576	366.5
344.804	392.5
345.031	374.5
345.259	368.5
345.487	362.5
345.714	373.5
345.942	360.5
346.17	361.5
346.397	356.5
346.625	338.5
346.853	348.5
347.08	345.5
347.308	361.5
347.535	361.5
347.763	341.5
347.99	347.5
348.218	359.5
348.445	355.5
348.673	342.5
348.9	354.5
349.128	353.5
349.355	350.5
349.583	337.5
349.81	340.5
350.037	340.5
350.265	337.5
350.492	336.5
350.72	337.5
350.947	360.5
351.174	343.5
351.402	345.5
351.629	342.5
351.856	343.5
352.083	331.5
352.311	365.5
352.538	360.5
352.765	342.5
352.992	363.5
353.22	358.5
353.447	329.5
353.674	342.5
353.901	348.5
354.128	334.5
354.355	328.5
354.583	325.5
354.81	340.5
355.037	353.5
355.264	334.5
355.491	342.5
355.718	350.5
355.945	345.5
356.172	341.5
356.399	349.5
356.626	346.5
356.853	324.5
357.08	348.5
357.307	341.5
357.534	351.5
357.761	348.5
357.988	352.5
358.215	336.5
358.441	323.5
358.668	345.5
358.895	352.5
359.122	340.5
359.349	358.5
359.576	359.5
359.802	339.5
360.029	363.5
360.256	380.5
360.483	360.5
360.709	347.5
360.936	345.5
361.163	353.5
361.39	372.5
361.616	336.5
361.843	349.5
362.07	344.5
362.296	344.5
362.523	348.5
362.749	344.5
362.976	342.5
363.203	342.5
363.429	352.5
363.656	354.5
363.882	355.5
364.109	333.5
364.335	349.5
364.562	358.5
364.788	339.5
365.015	356.5
365.241	339.5
365.468	334.5
365.694	346.5
365.92	358.5
366.147	359.5
366.373	338.5
366.599	345.5
366.826	322.5
367.052	344.5
367.278	340.5
367.505	357.5
367.731	380.5
367.957	341.5
368.184	328.5
368.41	344.5
368.636	347.5
368.862	361.5
369.089	344.5
369.315	353.5
369.541	349.5
369.767	357.5
369.993	356.5
370.219	348.5
370.445	355.5
370.672	328.5
370.898	357.5
371.124	346.5
371.35	349.5
371.576	344.5
371.802	361.5
372.028	356.5
372.254	365.5
372.48	365.5
372.706	369.5
372.932	373.5
373.158	373.5
373.384	374.5
373.61	359.5
373.835	350.5
374.061	365.5
374.287	371.5
374.513	364.5
374.739	386.5
374.965	394.5
375.191	374.5
375.416	384.5
375.642	381.5
375.868	385.5
376.094	374.5
376.319	384.5
376.545	362.5
376.771	378.5
376.997	372.5
377.222	366.5
377.448	359.5
377.674	352.5
377.899	357.5
378.125	358.5
378.35	362.5
378.576	348.5
378.802	365.5
379.027	364.5
379.253	377.5
379.478	355.5
379.704	354.5
379.929	362.5
380.155	361.5
380.38	385.5
380.606	373.5
380.831	381.5
381.057	378.5
381.282	363.5
381.507	380.5
381.733	373.5
381.958	376.5
382.184	389.5
382.409	398.5
382.634	387.5
382.86	373.5
383.085	379.5
383.31	385.5
383.535	389.5
383.761	372.5
383.986	389.5
384.211	400.5
384.436	389.5
384.662	392.5
384.887	404.5
385.112	395.5
385.337	388.5
385.562	396.5
385.787	402.5
386.013	426.5
386.238	414.5
386.463	408.5
386.688	399.5
386.913	404.5
387.138	381.5
387.363	411.5
387.588	409.5
387.813	405.5
388.038	401.5
388.263	419.5
388.488	427.5
388.713	456.5
388.938	408.5
389.163	390.5
389.387	420.5
389.612	409.5
389.837	403.5
390.062	415.5
390.287	418.5
390.512	428.5
390.736	398.5
390.961	405.5
391.186	417.5
391.411	411.5
391.636	416.5
391.86	424.5
392.085	430.5
392.31	416.5
392.534	417.5
392.759	438.5
392.984	415.5
393.208	414.5
393.433	434.5
393.658	440.5
393.882	429.5
394.107	402.5
394.331	428.5
394.556	390.5
394.78	419.5
395.005	438.5
395.229	426.5
395.454	418.5
395.678	433.5
395.903	450.5
396.127	452.5
396.352	476.5
396.576	447.5
396.801	463.5
397.025	450.5
397.249	449.5
397.474	437.5
397.698	452.5
397.922	480.5
398.147	461.5
398.371	457.5
398.595	453.5
398.82	492.5
399.044	520.5
399.268	490.5
399.492	496.5
399.717	546.5
399.941	573.5
400.165	569.5
400.389	587.5
400.613	533.5
400.837	506.5
401.062	489.5
401.286	509.5
401.51	486.5
401.734	468.5
401.958	476.5
402.182	488.5
402.406	469.5
402.63	492.5
402.854	471.5
403.078	472.5
403.302	486.5
403.526	492.5
403.75	499.5
403.974	489.5
404.198	517.5
404.422	497.5
404.645	514.5
404.869	517.5
405.093	511.5
405.317	531.5
405.541	593.5
405.765	564.5
405.988	503.5
406.212	509.5
406.436	517.5
406.66	535.5
406.883	505.5
407.107	567.5
407.331	568.5
407.555	618.5
407.778	590.5
408.002	595.5
408.226	546.5
408.449	536.5
408.673	497.5
408.896	551.5
409.12	576.5
409.344	584.5
409.567	521.5
409.791	502.5
410.014	509.5
410.238	494.5
410.461	526.5
410.685	518.5
410.908	504.5
411.132	503.5
411.355	541.5
411.578	527.5
411.802	488.5
412.025	502.5
412.249	510.5
412.472	532.5
412.695	522.5
412.919	525.5
413.142	503.5
413.365	482.5
413.589	487.5
413.812	492.5
414.035	475.5
414.258	465.5
414.482	467.5
414.705	478.5
414.928	475.5
415.151	472.5
415.374	470.5
415.597	467.5
415.821	478.5
416.044	477.5
416.267	467.5
416.49	473.5
416.713	464.5
416.936	453.5
417.159	464.5
417.382	452.5
417.605	452.5
417.828	484.5
418.051	488.5
418.274	462.5
418.497	465.5
418.72	452.5
418.943	458.5
419.166	461.5
419.389	504.5
419.611	493.5
419.834	502.5
420.057	478.5
420.28	476.5
420.503	466.5
420.726	468.5
420.948	490.5
421.171	507.5
421.394	553.5
421.617	502.5
421.839	482.5
422.062	473.5
422.285	484.5
422.507	512.5
422.73	580.5
422.953	542.5
423.175	506.5
423.398	490.5
423.621	498.5
423.843	502.5
424.066	487.5
424.288	481.5
424.511	503.5
424.733	556.5
424.956	610.5
425.178	587.5
425.401	562.5
425.623	620.5
425.846	518.5
426.068	490.5
426.291	483.5
426.513	493.5
426.735	493.5
426.958	516.5
427.18	599.5
427.402	697.5
427.625	737.5
427.847	628.5
428.069	564.5
428.292	525.5
428.514	487.5
428.736	485.5
428.958	487.5
429.181	454.5
429.403	448.5
429.625	468.5
429.847	510.5
430.069	531.5
430.292	530.5
430.514	477.5
430.736	457.5
430.958	470.5
431.18	453.5
431.402	466.5
431.624	438.5
431.846	458.5
432.068	448.5
432.29	458.5
432.512	454.5
432.734	460.5
432.956	473.5
433.178	477.5
433.4	478.5
433.622	459.5
433.844	470.5
434.066	442.5
434.287	470.5
434.509	458.5
434.731	482.5
434.953	489.5
435.175	472.5
435.397	475.5
435.618	507.5
435.84	494.5
436.062	587.5
436.284	654.5
436.505	515.5
436.727	518.5
436.949	460.5
437.17	468.5
437.392	472.5
437.614	450.5
437.835	460.5
438.057	554.5
438.278	622.5
438.5	622.5
438.721	678.5
438.943	669.5
439.165	538.5
439.386	472.5
439.608	472.5
439.829	474.5
440.05	522.5
440.272	541.5
440.493	520.5
440.715	488.5
440.936	489.5
441.158	474.5
441.379	472.5
441.6	481.5
441.822	478.5
442.043	530.5
442.264	574.5
442.486	624.5
442.707	546.5
442.928	491.5
443.149	499.5
443.371	514.5
443.592	544.5
443.813	637.5
444.034	671.5
444.255	564.5
444.476	516.5
444.698	518.5
444.919	533.5
445.14	630.5
445.361	555.5
445.582	518.5
445.803	532.5
446.024	637.5
446.245	628.5
446.466	580.5
446.687	518.5
446.908	506.5
447.129	470.5
447.35	470.5
447.571	467.5
447.792	440.5
448.013	458.5
448.234	457.5
448.455	506.5
448.675	579.5
448.896	700.5
449.117	575.5
449.338	519.5
449.559	608.5
449.779	722.5
450	574.5
450.221	496.5
450.442	454.5
450.662	430.5
450.883	442.5
451.104	453.5
451.324	458.5
451.545	432.5
451.766	405.5
451.986	429.5
452.207	443.5
452.428	408.5
452.648	418.5
452.869	426.5
453.089	412.5
453.31	456.5
453.53	424.5
453.751	417.5
453.971	397.5
454.192	420.5
454.412	412.5
454.633	429.5
454.853	398.5
455.073	413.5
455.294	416.5
455.514	448.5
455.734	457.5
455.955	435.5
456.175	412.5
456.395	408.5
456.616	401.5
456.836	397.5
457.056	407.5
457.276	387.5
457.497	390.5
457.717	399.5
457.937	421.5
458.157	402.5
458.377	423.5
458.598	440.5
458.818	457.5
459.038	498.5
459.258	498.5
459.478	494.5
459.698	483.5
459.918	464.5
460.138	488.5
460.358	474.5
460.578	484.5
460.798	497.5
461.018	488.5
461.238	486.5
461.458	483.5
461.678	497.5
461.898	490.5
462.118	483.5
462.338	491.5
462.558	488.5
462.777	503.5
462.997	531.5
463.217	532.5
463.437	545.5
463.657	547.5
463.876	524.5
464.096	526.5
464.316	528.5
464.536	541.5
464.755	524.5
464.975	504.5
465.195	516.5
465.414	544.5
465.634	500.5
465.854	493.5
466.073	478.5
466.293	458.5
466.512	436.5
466.732	448.5
466.951	454.5
467.171	468.5
467.391	454.5
467.61	437.5
467.829	465.5
468.049	455.5
468.268	438.5
468.488	421.5
468.707	424.5
468.927	450.5
469.146	435.5
469.365	445.5
469.585	452.5
469.804	435.5
470.023	449.5
470.243	442.5
470.462	457.5
470.681	457.5
470.901	440.5
471.12	472.5
471.339	462.5
471.558	450.5
471.777	442.5
471.997	443.5
472.216	438.5
472.435	478.5
472.654	471.5
472.873	443.5
473.092	435.5
473.311	437.5
473.53	442.5
473.749	469.5
473.968	474.5
474.187	555.5
474.406	552.5
474.625	486.5
474.844	492.5
475.063	457.5
475.282	447.5
475.501	468.5
475.72	479.5
475.939	472.5
476.158	474.5
476.377	474.5
476.596	459.5
476.814	474.5
477.033	490.5
477.252	469.5
477.471	478.5
477.69	501.5
477.908	497.5
478.127	515.5
478.346	505.5
478.564	498.5
478.783	513.5
479.002	517.5
479.22	510.5
479.439	496.5
479.658	514.5
479.876	529.5
480.095	520.5
480.313	543.5
480.532	552.5
480.751	526.5
480.969	558.5
481.188	576.5
481.406	533.5
481.624	555.5
481.843	526.5
482.061	537.5
482.28	530.5
482.498	508.5
482.717	523.5
482.935	537.5
483.153	526.5
483.372	526.5
483.59	546.5
483.808	542.5
484.027	537.5
484.245	530.5
484.463	520.5
484.681	540.5
484.9	529.5
485.118	532.5
485.336	529.5
485.554	545.5
485.772	515.5
485.99	542.5
486.209	555.5
486.427	527.5
486.645	560.5
486.863	539.5
487.081	565.5
487.299	570.5
487.517	563.5
487.735	533.5
487.953	560.5
488.171	564.5
488.389	562.5
488.607	572.5
488.825	552.5
489.043	564.5
489.261	560.5
489.479	558.5
489.696	572.5
489.914	569.5
490.132	557.5
490.35	569.5
490.568	579.5
490.786	570.5
491.003	555.5
491.221	598.5
491.439	614.5
491.657	585.5
491.874	608.5
492.092	584.5
492.31	627.5
492.527	595.5
492.745	605.5
492.963	630.5
493.18	610.5
493.398	624.5
493.615	634.5
493.833	628.5
494.05	630.5
494.268	620.5
494.485	601.5
494.703	627.5
494.92	636.5
495.138	604.5
495.355	619.5
495.573	638.5
495.79	624.5
496.008	644.5
496.225	647.5
496.442	669.5
496.66	677.5
496.877	668.5
497.094	660.5
497.312	664.5
497.529	698.5
497.746	699.5
497.963	706.5
498.181	726.5
498.398	734.5
498.615	750.5
498.832	745.5
499.049	784.5
499.267	798.5
499.484	844.5
499.701	893.5
499.918	916.5
500.135	940.5
500.352	989.5
500.569	977.5
500.786	986.5
501.003	985.5
501.22	947.5
501.437	920.5
501.654	899.5
501.871	863.5
502.088	850.5
502.305	806.5
502.522	769.5
502.739	754.5
502.956	742.5
503.172	732.5
503.389	694.5
503.606	704.5
503.823	682.5
504.04	688.5
504.256	670.5
504.473	667.5
504.69	696.5
504.907	672.5
505.123	661.5
505.34	645.5
505.557	632.5
505.773	621.5
505.99	613.5
506.207	626.5
506.423	626.5
506.64	613.5
506.856	608.5
507.073	610.5
507.289	595.5
507.506	606.5
507.722	595.5
507.939	594.5
508.155	590.5
508.372	565.5
508.588	573.5
508.805	590.5
509.021	544.5
509.238	592.5
509.454	581.5
509.67	556.5
509.887	577.5
510.103	557.5
510.319	580.5
510.536	595.5
510.752	745.5
510.968	674.5
511.184	576.5
511.401	526.5
511.617	535.5
511.833	520.5
512.049	532.5
512.265	561.5
512.481	542.5
512.698	533.5
512.914	532.5
513.13	543.5
513.346	545.5
513.562	529.5
513.778	542.5
513.994	545.5
514.21	568.5
514.426	562.5
514.642	560.5
514.858	584.5
515.074	604.5
515.29	628.5
515.506	741.5
515.721	670.5
515.937	606.5
516.153	562.5
516.369	566.5
516.585	587.5
516.801	572.5
517.016	584.5
517.232	583.5
517.448	596.5
517.664	584.5
517.879	591.5
518.095	584.5
518.311	580.5
518.527	588.5
518.742	576.5
518.958	577.5
519.173	550.5
519.389	580.5
519.605	566.5
519.82	567.5
520.036	556.5
520.251	570.5
520.467	564.5
520.682	565.5
520.898	557.5
521.113	568.5
521.329	568.5
521.544	603.5
521.76	642.5
521.975	826.5
522.19	845.5
522.406	620.5
522.621	556.5
522.836	519.5
523.052	527.5
523.267	517.5
523.482	514.5
523.698	508.5
523.913	541.5
524.128	515.5
524.343	493.5
524.559	499.5
524.774	481.5
524.989	484.5
525.204	513.5
525.419	476.5
525.634	487.5
525.849	491.5
526.064	459.5
526.28	490.5
526.495	474.5
526.71	470.5
526.925	471.5
527.14	470.5
527.355	465.5
527.57	478.5
527.785	477.5
527.999	465.5
528.214	481.5
528.429	476.5
528.644	478.5
528.859	456.5
529.074	451.5
529.289	458.5
529.503	503.5
529.718	496.5
529.933	498.5
530.148	475.5
530.363	470.5
530.577	477.5
530.792	492.5
531.007	493.5
531.221	471.5
531.436	480.5
531.651	460.5
531.865	474.5
532.08	459.5
532.295	461.5
532.509	451.5
532.724	470.5
532.938	447.5
533.153	468.5
533.367	475.5
533.582	449.5
533.796	482.5
534.011	462.5
534.225	452.5
534.44	473.5
534.654	448.5
534.868	450.5
535.083	452.5
535.297	442.5
535.511	459.5
535.726	428.5
535.94	454.5
536.154	457.5
536.369	418.5
536.583	457.5
536.797	466.5
537.011	464.5
537.225	450.5
537.44	451.5
537.654	462.5
537.868	439.5
538.082	454.5
538.296	449.5
538.51	448.5
538.724	445.5
538.938	437.5
539.153	427.5
539.367	445.5
539.581	442.5
539.795	451.5
540.009	433.5
540.222	436.5
540.436	460.5
540.65	426.5
540.864	448.5
541.078	452.5
541.292	473.5
541.506	456.5
541.72	429.5
541.934	438.5
542.147	436.5
542.361	445.5
542.575	435.5
542.789	438.5
543.002	434.5
543.216	443.5
543.43	445.5
543.644	433.5
543.857	445.5
544.071	446.5
544.285	453.5
544.498	445.5
544.712	444.5
544.925	457.5
545.139	452.5
545.352	421.5
545.566	430.5
545.779	419.5
545.993	434.5
546.206	448.5
546.42	454.5
546.633	409.5
546.847	440.5
547.06	450.5
547.274	433.5
547.487	443.5
547.7	444.5
547.914	427.5
548.127	443.5
548.34	435.5
548.554	444.5
548.767	443.5
548.98	423.5
549.193	445.5
549.407	446.5
549.62	424.5
549.833	437.5
550.046	444.5
550.259	426.5
550.473	426.5
550.686	428.5
550.899	421.5
551.112	417.5
551.325	412.5
551.538	418.5
551.751	410.5
551.964	421.5
552.177	421.5
552.39	420.5
552.603	452.5
552.816	452.5
553.029	456.5
553.242	456.5
553.455	440.5
553.667	439.5
553.88	454.5
554.093	426.5
554.306	448.5
554.519	426.5
554.732	442.5
554.944	411.5
555.157	413.5
555.37	422.5
555.583	410.5
555.795	419.5
556.008	414.5
556.221	424.5
556.433	401.5
556.646	410.5
556.859	394.5
557.071	402.5
557.284	406.5
557.496	404.5
557.709	404.5
557.921	398.5
558.134	366.5
558.346	396.5
558.559	376.5
558.771	377.5
558.984	373.5
559.196	418.5
559.409	402.5
559.621	380.5
559.833	395.5
560.046	393.5
560.258	377.5
560.47	385.5
560.683	392.5
560.895	395.5
561.107	376.5
561.32	402.5
561.532	412.5
561.744	379.5
561.956	377.5
562.168	404.5
562.381	408.5
562.593	394.5
562.805	407.5
563.017	393.5
563.229	397.5
563.441	405.5
563.653	399.5
563.865	401.5
564.077	391.5
564.289	416.5
564.501	410.5
564.713	415.5
564.925	424.5
565.137	428.5
565.349	441.5
565.561	455.5
565.773	445.5
565.985	465.5
566.197	465.5
566.408	466.5
566.62	473.5
566.832	477.5
567.044	473.5
567.255	526.5
567.467	520.5
567.679	520.5
567.891	518.5
568.102	530.5
568.314	517.5
568.526	488.5
568.737	464.5
568.949	456.5
569.161	454.5
569.372	422.5
569.584	414.5
569.795	413.5
570.007	425.5
570.218	416.5
570.43	415.5
570.641	384.5
570.853	389.5
571.064	381.5
571.276	404.5
571.487	393.5
571.698	394.5
571.91	378.5
572.121	377.5
572.333	377.5
572.544	351.5
572.755	354.5
572.966	364.5
573.178	358.5
573.389	356.5
573.6	363.5
573.811	374.5
574.023	361.5
574.234	368.5
574.445	356.5
574.656	353.5
574.867	358.5
575.078	342.5
575.289	342.5
575.501	321.5
575.712	340.5
575.923	338.5
576.134	338.5
576.345	334.5
576.556	346.5
576.767	334.5
576.978	340.5
577.188	360.5
577.399	348.5
577.61	343.5
577.821	338.5
578.032	347.5
578.243	338.5
578.454	395.5
578.665	374.5
578.875	348.5
579.086	335.5
579.297	329.5
579.508	330.5
579.718	321.5
579.929	309.5
580.14	331.5
580.35	323.5
580.561	328.5
580.772	335.5
580.982	332.5
581.193	306.5
581.403	314.5
581.614	321.5
581.825	320.5
582.035	322.5
582.246	317.5
582.456	306.5
582.667	325.5
582.877	295.5
583.087	310.5
583.298	319.5
583.508	304.5
583.719	336.5
583.929	320.5
584.139	294.5
584.35	295.5
584.56	319.5
584.77	304.5
584.981	312.5
585.191	308.5
585.401	314.5
585.611	292.5
585.821	320.5
586.032	305.5
586.242	299.5
586.452	292.5
586.662	289.5
586.872	300.5
587.082	314.5
587.292	286.5
587.502	300.5
587.713	307.5
587.923	304.5
588.133	297.5
588.343	316.5
588.553	312.5
588.762	328.5
588.972	299.5
589.182	290.5
589.392	290.5
589.602	310.5
589.812	307.5
590.022	297.5
590.232	302.5
590.441	302.5
590.651	307.5
590.861	324.5
591.071	304.5
591.281	314.5
591.49	316.5
591.7	328.5
591.91	324.5
592.119	315.5
592.329	322.5
592.539	324.5
592.748	334.5
592.958	331.5
593.167	330.5
593.377	303.5
593.587	342.5
593.796	339.5
594.006	339.5
594.215	315.5
594.424	318.5
594.634	321.5
594.843	316.5
595.053	329.5
595.262	325.5
595.472	316.5
595.681	310.5
595.89	326.5
596.1	305.5
596.309	295.5
596.518	302.5
596.727	320.5
596.937	290.5
597.146	283.5
597.355	282.5
597.564	292.5
597.774	292.5
597.983	288.5
598.192	275.5
598.401	279.5
598.61	293.5
598.819	291.5
599.028	271.5
599.237	267.5
599.446	271.5
599.655	272.5
599.864	273.5
600.073	272.5
600.282	270.5
600.491	266.5
600.7	270.5
600.909	276.5
601.118	271.5
601.327	260.5
601.536	272.5
601.745	260.5
601.953	269.5
602.162	270.5
602.371	269.5
602.58	262.5
602.789	264.5
602.997	269.5
603.206	256.5
603.415	246.5
603.623	251.5
603.832	253.5
604.041	270.5
604.249	257.5
604.458	255.5
604.666	253.5
604.875	245.5
605.084	266.5
605.292	264.5
605.501	261.5
605.709	252.5
605.918	236.5
606.126	245.5
606.334	260.5
606.543	240.5
606.751	237.5
606.96	260.5
607.168	243.5
607.376	243.5
607.585	263.5
607.793	247.5
608.001	241.5
608.21	244.5
608.418	249.5
608.626	232.5
608.834	263.5
609.043	246.5
609.251	258.5
609.459	249.5
609.667	268.5
609.875	256.5
610.083	264.5
610.291	253.5
610.499	250.5
610.707	245.5
610.916	249.5
611.124	253.5
611.332	249.5
611.54	246.5
611.748	257.5
611.955	276.5
612.163	242.5
612.371	261.5
612.579	244.5
612.787	239.5
612.995	242.5
613.203	252.5
613.411	252.5
613.618	257.5
613.826	242.5
614.034	251.5
614.242	226.5
614.449	244.5
614.657	244.5
614.865	246.5
615.072	244.5
615.28	245.5
615.488	242.5
615.695	249.5
615.903	245.5
616.111	217.5
616.318	237.5
616.526	236.5
616.733	247.5
616.941	258.5
617.148	250.5
617.356	225.5
617.563	242.5
617.771	272.5
617.978	228.5
618.185	221.5
618.393	260.5
618.6	239.5
618.807	230.5
619.015	236.5
619.222	235.5
619.429	244.5
619.637	244.5
619.844	246.5
620.051	206.5
620.258	239.5
620.466	224.5
620.673	223.5
620.88	214.5
621.087	234.5
621.294	230.5
621.501	231.5
621.708	226.5
621.915	231.5
622.122	243.5
622.329	252.5
622.536	239.5
622.743	227.5
622.95	218.5
623.157	220.5
623.364	216.5
623.571	219.5
623.778	206.5
623.985	234.5
624.192	243.5
624.399	226.5
624.606	221.5
624.812	230.5
625.019	245.5
625.226	233.5
625.433	223.5
625.639	217.5
625.846	193.5
626.053	216.5
626.259	220.5
626.466	213.5
626.673	195.5
626.879	199.5
627.086	226.5
627.293	223.5
627.499	202.5
627.706	208.5
627.912	210.5
628.119	196.5
628.325	204.5
628.532	203.5
628.738	200.5
628.945	203.5
629.151	210.5
629.357	202.5
629.564	206.5
629.77	211.5
629.976	213.5
630.183	224.5
630.389	206.5
630.595	190.5
630.802	184.5
631.008	189.5
631.214	189.5
631.42	205.5
631.627	212.5
631.833	197.5
632.039	184.5
632.245	186.5
632.451	181.5
632.657	202.5
632.863	184.5
633.069	190.5
633.275	206.5
633.481	206.5
633.688	197.5
633.893	189.5
634.099	188.5
634.305	203.5
634.511	191.5
634.717	193.5
634.923	203.5
635.129	199.5
635.335	184.5
635.541	170.5
635.747	174.5
635.952	200.5
636.158	186.5
636.364	190.5
636.57	193.5
636.775	183.5
636.981	180.5
637.187	196.5
637.392	192.5
637.598	181.5
637.804	178.5
638.009	197.5
638.215	180.5
638.421	179.5
638.626	180.5
638.832	164.5
639.037	188.5
639.243	173.5
639.448	180.5
639.654	192.5
639.859	169.5
640.065	187.5
640.27	194.5
640.475	176.5
640.681	187.5
640.886	168.5
641.091	171.5
641.297	164.5
641.502	166.5
641.707	173.5
641.913	173.5
642.118	188.5
642.323	171.5
642.528	196.5
642.733	173.5
642.939	187.5
643.144	183.5
643.349	185.5
643.554	165.5
643.759	161.5
643.964	171.5
644.169	164.5
644.374	172.5
644.579	163.5
644.784	168.5
644.989	160.5
645.194	183.5
645.399	180.5
645.604	169.5
645.809	171.5
646.014	173.5
646.219	168.5
646.423	168.5
646.628	157.5
646.833	180.5
647.038	168.5
647.243	163.5
647.447	163.5
647.652	178.5
647.857	178.5
648.062	169.5
648.266	169.5
648.471	166.5
648.676	178.5
648.88	165.5
649.085	172.5
649.289	185.5
649.494	157.5
649.698	182.5
649.903	182.5
650.107	181.5
650.312	168.5
650.516	168.5
650.721	151.5
650.925	157.5
651.13	146.5
651.334	164.5
651.539	157.5
651.743	139.5
651.947	148.5
652.152	149.5
652.356	157.5
652.56	171.5
652.764	143.5
652.969	142.5
653.173	158.5
653.377	157.5
653.581	142.5
653.785	132.5
653.99	147.5
654.194	138.5
654.398	132.5
654.602	134.5
654.806	151.5
655.01	148.5
655.214	129.5
655.418	146.5
655.622	124.5
655.826	124.5
656.03	151.5
656.234	142.5
656.438	146.5
656.642	142.5
656.846	144.5
657.049	132.5
657.253	137.5
657.457	120.5
657.661	104.5
657.865	112.5
658.068	119.5
658.272	117.5
658.476	103.5
658.68	115.5
658.883	100.5
659.087	110.5
659.291	95.5
659.494	110.5
659.698	99.5
659.901	86.5
660.105	94.5
660.309	86.5
660.512	105.5
660.716	104.5
660.919	91.5
661.123	95.5
661.326	93.5
661.53	78.5
661.733	83.5
661.936	93.5
662.14	85.5
662.343	94.5
662.546	79.5
662.75	98.5
662.953	92.5
663.156	82.5
663.36	91.5
663.563	87.5
663.766	86.5
663.969	90.5
664.173	75.5
664.376	76.5
664.579	81.5
664.782	78.5
664.985	71.5
665.188	83.5
665.391	98.5
665.594	86.5
665.797	81.5
666	86.5
666.203	68.5
666.406	71.5
666.609	85.5
666.812	90.5
667.015	85.5
667.218	93.5
667.421	101.5
667.624	77.5
667.827	96.5
668.03	76.5
668.232	80.5
668.435	75.5
668.638	89.5
668.841	91.5
669.043	78.5
669.246	81.5
669.449	77.5
669.651	78.5
669.854	86.5
670.057	69.5
670.259	78.5
670.462	77.5
670.665	89.5
670.867	88.5
671.07	94.5
671.272	89.5
671.475	86.5
671.677	81.5
671.88	86.5
672.082	80.5
672.284	79.5
672.487	82.5
672.689	80.5
672.892	85.5
