Data from 1978.PennyLincolnUp.Lamp.En5.5.200Scan.071719.P1_HRD10591_16-14-21-863.txt Node
Date: Thu Jul 18 16:14:21 EDT 2019
User: cochatt
Spectrometer: HR+D1059
Trigger mode: 1
Integration Time (sec): 1.000000E-1
Scans to average: 1
Electric dark correction enabled: true
Nonlinearity correction enabled: false
Boxcar width: 0
XAxis mode: Wavelengths
Number of Pixels in Spectrum: 2048
>>>>>Begin Spectral Data<<<<<
223.165	-6.38
223.4	-6.38
223.635	-6.38
223.869	-19.38
224.104	-18.38
224.338	-8.38
224.573	-15.38
224.808	-26.38
225.042	0.62
225.277	-9.38
225.511	-11.38
225.746	0.62
225.98	-1.38
226.215	16.62
226.449	21.62
226.683	18.62
226.918	24.62
227.152	33.62
227.387	26.62
227.621	12.62
227.856	42.62
228.09	43.62
228.324	42.62
228.559	50.62
228.793	74.62
229.027	96.62
229.262	114.62
229.496	128.62
229.73	128.62
229.964	163.62
230.199	142.62
230.433	95.62
230.667	113.62
230.901	107.62
231.136	116.62
231.37	104.62
231.604	120.62
231.838	109.62
232.072	114.62
232.306	98.62
232.541	122.62
232.775	120.62
233.009	109.62
233.243	109.62
233.477	116.62
233.711	109.62
233.945	106.62
234.179	126.62
234.413	122.62
234.647	113.62
234.881	132.62
235.115	124.62
235.349	122.62
235.583	136.62
235.817	117.62
236.051	138.62
236.285	121.62
236.519	116.62
236.753	121.62
236.987	158.62
237.221	184.62
237.455	216.62
237.689	191.62
237.922	134.62
238.156	126.62
238.39	139.62
238.624	116.62
238.858	131.62
239.091	131.62
239.325	118.62
239.559	131.62
239.793	137.62
240.027	117.62
240.26	139.62
240.494	148.62
240.728	162.62
240.961	162.62
241.195	139.62
241.429	132.62
241.662	127.62
241.896	114.62
242.13	134.62
242.363	134.62
242.597	131.62
242.83	138.62
243.064	134.62
243.298	129.62
243.531	134.62
243.765	143.62
243.998	148.62
244.232	126.62
244.465	111.62
244.699	133.62
244.932	152.62
245.166	134.62
245.399	148.62
245.633	142.62
245.866	141.62
246.099	152.62
246.333	141.62
246.566	151.62
246.8	136.62
247.033	142.62
247.266	160.62
247.5	170.62
247.733	170.62
247.966	167.62
248.2	164.62
248.433	168.62
248.666	167.62
248.899	203.62
249.133	191.62
249.366	201.62
249.599	189.62
249.832	176.62
250.066	178.62
250.299	169.62
250.532	179.62
250.765	196.62
250.998	214.62
251.231	219.62
251.465	215.62
251.698	211.62
251.931	197.62
252.164	195.62
252.397	193.62
252.63	185.62
252.863	190.62
253.096	216.62
253.329	206.62
253.562	222.62
253.795	212.62
254.028	222.62
254.261	220.62
254.494	210.62
254.727	232.62
254.96	250.62
255.193	259.62
255.426	233.62
255.659	229.62
255.892	229.62
256.124	218.62
256.357	223.62
256.59	238.62
256.823	211.62
257.056	219.62
257.289	211.62
257.521	203.62
257.754	202.62
257.987	201.62
258.22	215.62
258.452	209.62
258.685	201.62
258.918	188.62
259.151	201.62
259.383	212.62
259.616	207.62
259.849	212.62
260.081	221.62
260.314	229.62
260.547	242.62
260.779	242.62
261.012	227.62
261.244	210.62
261.477	201.62
261.71	206.62
261.942	215.62
262.175	223.62
262.407	219.62
262.64	216.62
262.872	217.62
263.105	219.62
263.337	230.62
263.57	220.62
263.802	209.62
264.035	225.62
264.267	213.62
264.499	200.62
264.732	209.62
264.964	214.62
265.197	216.62
265.429	201.62
265.661	190.62
265.894	189.62
266.126	225.62
266.358	222.62
266.591	213.62
266.823	217.62
267.055	224.62
267.287	231.62
267.52	241.62
267.752	211.62
267.984	210.62
268.216	245.62
268.448	234.62
268.681	238.62
268.913	235.62
269.145	261.62
269.377	261.62
269.609	275.62
269.841	250.62
270.073	272.62
270.306	294.62
270.538	313.62
270.77	300.62
271.002	290.62
271.234	281.62
271.466	302.62
271.698	300.62
271.93	327.62
272.162	305.62
272.394	310.62
272.626	283.62
272.858	283.62
273.09	289.62
273.322	241.62
273.553	265.62
273.785	258.62
274.017	265.62
274.249	255.62
274.481	256.62
274.713	266.62
274.945	260.62
275.176	272.62
275.408	245.62
275.64	260.62
275.872	265.62
276.104	256.62
276.335	254.62
276.567	272.62
276.799	275.62
277.031	293.62
277.262	320.62
277.494	306.62
277.726	301.62
277.957	281.62
278.189	280.62
278.421	275.62
278.652	272.62
278.884	284.62
279.115	290.62
279.347	254.62
279.579	274.62
279.81	267.62
280.042	253.62
280.273	272.62
280.505	260.62
280.736	269.62
280.968	247.62
281.199	278.62
281.431	264.62
281.662	272.62
281.894	266.62
282.125	264.62
282.356	298.62
282.588	306.62
282.819	304.62
283.051	272.62
283.282	265.62
283.513	263.62
283.745	280.62
283.976	285.62
284.207	261.62
284.439	280.62
284.67	294.62
284.901	275.62
285.132	282.62
285.364	277.62
285.595	277.62
285.826	295.62
286.057	283.62
286.288	289.62
286.52	292.62
286.751	272.62
286.982	285.62
287.213	284.62
287.444	280.62
287.675	295.62
287.906	308.62
288.138	288.62
288.369	315.62
288.6	279.62
288.831	297.62
289.062	289.62
289.293	291.62
289.524	312.62
289.755	290.62
289.986	294.62
290.217	299.62
290.448	298.62
290.679	310.62
290.91	277.62
291.141	287.62
291.371	288.62
291.602	291.62
291.833	293.62
292.064	286.62
292.295	284.62
292.526	293.62
292.757	308.62
292.987	277.62
293.218	283.62
293.449	286.62
293.68	285.62
293.91	292.62
294.141	302.62
294.372	281.62
294.603	288.62
294.833	301.62
295.064	288.62
295.295	307.62
295.525	284.62
295.756	301.62
295.987	287.62
296.217	334.62
296.448	336.62
296.679	301.62
296.909	296.62
297.14	304.62
297.37	301.62
297.601	284.62
297.831	300.62
298.062	294.62
298.292	306.62
298.523	304.62
298.753	307.62
298.984	310.62
299.214	305.62
299.445	319.62
299.675	307.62
299.905	328.62
300.136	332.62
300.366	308.62
300.597	314.62
300.827	312.62
301.057	354.62
301.288	337.62
301.518	322.62
301.748	310.62
301.979	330.62
302.209	340.62
302.439	331.62
302.669	332.62
302.9	333.62
303.13	321.62
303.36	320.62
303.59	341.62
303.82	321.62
304.051	339.62
304.281	346.62
304.511	338.62
304.741	344.62
304.971	333.62
305.201	321.62
305.431	332.62
305.661	343.62
305.891	340.62
306.121	333.62
306.352	322.62
306.582	337.62
306.812	317.62
307.042	337.62
307.272	345.62
307.502	348.62
307.731	354.62
307.961	339.62
308.191	329.62
308.421	330.62
308.651	355.62
308.881	353.62
309.111	353.62
309.341	352.62
309.571	355.62
309.8	343.62
310.03	358.62
310.26	372.62
310.49	376.62
310.72	382.62
310.949	385.62
311.179	394.62
311.409	383.62
311.639	377.62
311.868	388.62
312.098	384.62
312.328	383.62
312.557	395.62
312.787	418.62
313.017	407.62
313.246	399.62
313.476	381.62
313.706	392.62
313.935	400.62
314.165	384.62
314.394	408.62
314.624	398.62
314.853	398.62
315.083	392.62
315.312	406.62
315.542	386.62
315.771	380.62
316.001	370.62
316.23	393.62
316.46	366.62
316.689	363.62
316.919	374.62
317.148	394.62
317.377	394.62
317.607	364.62
317.836	368.62
318.065	378.62
318.295	387.62
318.524	378.62
318.753	378.62
318.983	385.62
319.212	382.62
319.441	394.62
319.67	404.62
319.9	382.62
320.129	376.62
320.358	402.62
320.587	382.62
320.816	393.62
321.046	388.62
321.275	385.62
321.504	407.62
321.733	399.62
321.962	404.62
322.191	409.62
322.42	426.62
322.649	445.62
322.878	434.62
323.108	454.62
323.337	481.62
323.566	502.62
323.795	521.62
324.024	571.62
324.253	689.62
324.482	1001.62
324.71	1606.62
324.939	2519.62
325.168	2178.62
325.397	1008.62
325.626	664.62
325.855	561.62
326.084	530.62
326.313	504.62
326.542	531.62
326.77	553.62
326.999	704.62
327.228	955.62
327.457	1464.62
327.686	1802.62
327.914	1171.62
328.143	739.62
328.372	651.62
328.6	584.62
328.829	570.62
329.058	595.62
329.287	581.62
329.515	570.62
329.744	530.62
329.972	533.62
330.201	521.62
330.43	557.62
330.658	585.62
330.887	616.62
331.115	605.62
331.344	526.62
331.572	527.62
331.801	486.62
332.03	517.62
332.258	487.62
332.486	491.62
332.715	455.62
332.943	449.62
333.172	487.62
333.4	488.62
333.629	475.62
333.857	491.62
334.085	517.62
334.314	520.62
334.542	565.62
334.771	572.62
334.999	522.62
335.227	500.62
335.455	446.62
335.684	464.62
335.912	490.62
336.14	464.62
336.369	452.62
336.597	480.62
336.825	482.62
337.053	460.62
337.281	470.62
337.51	475.62
337.738	444.62
337.966	451.62
338.194	461.62
338.422	453.62
338.65	458.62
338.878	458.62
339.106	451.62
339.334	431.62
339.562	449.62
339.79	424.62
340.018	436.62
340.246	453.62
340.474	465.62
340.702	455.62
340.93	444.62
341.158	435.62
341.386	435.62
341.614	446.62
341.842	441.62
342.07	433.62
342.298	450.62
342.526	430.62
342.754	446.62
342.981	425.62
343.209	445.62
343.437	449.62
343.665	434.62
343.893	429.62
344.12	477.62
344.348	457.62
344.576	460.62
344.804	468.62
345.031	452.62
345.259	446.62
345.487	471.62
345.714	442.62
345.942	428.62
346.17	445.62
346.397	437.62
346.625	436.62
346.853	433.62
347.08	432.62
347.308	445.62
347.535	457.62
347.763	450.62
347.99	450.62
348.218	449.62
348.445	422.62
348.673	435.62
348.9	434.62
349.128	434.62
349.355	412.62
349.583	415.62
349.81	419.62
350.037	417.62
350.265	428.62
350.492	430.62
350.72	415.62
350.947	436.62
351.174	426.62
351.402	451.62
351.629	446.62
351.856	446.62
352.083	433.62
352.311	429.62
352.538	448.62
352.765	461.62
352.992	445.62
353.22	446.62
353.447	436.62
353.674	445.62
353.901	423.62
354.128	425.62
354.355	402.62
354.583	402.62
354.81	412.62
355.037	434.62
355.264	436.62
355.491	412.62
355.718	420.62
355.945	394.62
356.172	393.62
356.399	408.62
356.626	400.62
356.853	416.62
357.08	410.62
357.307	397.62
357.534	414.62
357.761	402.62
357.988	418.62
358.215	412.62
358.441	401.62
358.668	412.62
358.895	432.62
359.122	432.62
359.349	424.62
359.576	437.62
359.802	452.62
360.029	487.62
360.256	491.62
360.483	475.62
360.709	446.62
360.936	444.62
361.163	441.62
361.39	438.62
361.616	459.62
361.843	460.62
362.07	428.62
362.296	449.62
362.523	432.62
362.749	426.62
362.976	440.62
363.203	427.62
363.429	426.62
363.656	427.62
363.882	420.62
364.109	405.62
364.335	419.62
364.562	411.62
364.788	411.62
365.015	423.62
365.241	404.62
365.468	414.62
365.694	439.62
365.92	436.62
366.147	429.62
366.373	439.62
366.599	420.62
366.826	406.62
367.052	442.62
367.278	418.62
367.505	442.62
367.731	413.62
367.957	414.62
368.184	411.62
368.41	438.62
368.636	438.62
368.862	449.62
369.089	444.62
369.315	404.62
369.541	421.62
369.767	426.62
369.993	408.62
370.219	409.62
370.445	421.62
370.672	421.62
370.898	430.62
371.124	409.62
371.35	418.62
371.576	407.62
371.802	451.62
372.028	416.62
372.254	440.62
372.48	420.62
372.706	427.62
372.932	420.62
373.158	420.62
373.384	432.62
373.61	427.62
373.835	421.62
374.061	413.62
374.287	437.62
374.513	446.62
374.739	437.62
374.965	440.62
375.191	427.62
375.416	466.62
375.642	442.62
375.868	445.62
376.094	424.62
376.319	414.62
376.545	436.62
376.771	432.62
376.997	438.62
377.222	417.62
377.448	439.62
377.674	421.62
377.899	404.62
378.125	410.62
378.35	424.62
378.576	412.62
378.802	429.62
379.027	414.62
379.253	428.62
379.478	433.62
379.704	444.62
379.929	443.62
380.155	450.62
380.38	454.62
380.606	441.62
380.831	426.62
381.057	427.62
381.282	426.62
381.507	438.62
381.733	449.62
381.958	436.62
382.184	435.62
382.409	429.62
382.634	457.62
382.86	435.62
383.085	461.62
383.31	448.62
383.535	453.62
383.761	440.62
383.986	444.62
384.211	459.62
384.436	442.62
384.662	453.62
384.887	442.62
385.112	447.62
385.337	486.62
385.562	480.62
385.787	470.62
386.013	490.62
386.238	478.62
386.463	457.62
386.688	490.62
386.913	459.62
387.138	477.62
387.363	490.62
387.588	465.62
387.813	472.62
388.038	473.62
388.263	489.62
388.488	481.62
388.713	462.62
388.938	465.62
389.163	474.62
389.387	488.62
389.612	466.62
389.837	461.62
390.062	485.62
390.287	476.62
390.512	481.62
390.736	489.62
390.961	479.62
391.186	486.62
391.411	484.62
391.636	501.62
391.86	471.62
392.085	492.62
392.31	480.62
392.534	520.62
392.759	481.62
392.984	499.62
393.208	489.62
393.433	490.62
393.658	493.62
393.882	481.62
394.107	478.62
394.331	496.62
394.556	485.62
394.78	486.62
395.005	506.62
395.229	500.62
395.454	521.62
395.678	510.62
395.903	505.62
396.127	537.62
396.352	540.62
396.576	527.62
396.801	489.62
397.025	520.62
397.249	507.62
397.474	518.62
397.698	534.62
397.922	537.62
398.147	552.62
398.371	564.62
398.595	538.62
398.82	541.62
399.044	567.62
399.268	582.62
399.492	608.62
399.717	635.62
399.941	660.62
400.165	702.62
400.389	710.62
400.613	635.62
400.837	608.62
401.062	596.62
401.286	581.62
401.51	583.62
401.734	553.62
401.958	552.62
402.182	572.62
402.406	564.62
402.63	561.62
402.854	562.62
403.078	579.62
403.302	596.62
403.526	610.62
403.75	612.62
403.974	590.62
404.198	587.62
404.422	575.62
404.645	597.62
404.869	592.62
405.093	629.62
405.317	672.62
405.541	710.62
405.765	640.62
405.988	600.62
406.212	612.62
406.436	628.62
406.66	661.62
406.883	616.62
407.107	650.62
407.331	716.62
407.555	764.62
407.778	773.62
408.002	710.62
408.226	660.62
408.449	633.62
408.673	661.62
408.896	681.62
409.12	711.62
409.344	679.62
409.567	626.62
409.791	613.62
410.014	586.62
410.238	595.62
410.461	584.62
410.685	564.62
410.908	612.62
411.132	653.62
411.355	707.62
411.578	663.62
411.802	611.62
412.025	590.62
412.249	598.62
412.472	628.62
412.695	638.62
412.919	647.62
413.142	579.62
413.365	592.62
413.589	570.62
413.812	549.62
414.035	568.62
414.258	542.62
414.482	554.62
414.705	552.62
414.928	560.62
415.151	554.62
415.374	548.62
415.597	572.62
415.821	533.62
416.044	578.62
416.267	564.62
416.49	586.62
416.713	549.62
416.936	541.62
417.159	551.62
417.382	546.62
417.605	569.62
417.828	562.62
418.051	575.62
418.274	582.62
418.497	558.62
418.72	556.62
418.943	551.62
419.166	590.62
419.389	582.62
419.611	590.62
419.834	587.62
420.057	586.62
420.28	553.62
420.503	546.62
420.726	571.62
420.948	590.62
421.171	615.62
421.394	682.62
421.617	611.62
421.839	582.62
422.062	589.62
422.285	577.62
422.507	645.62
422.73	722.62
422.953	709.62
423.175	634.62
423.398	596.62
423.621	602.62
423.843	634.62
424.066	602.62
424.288	617.62
424.511	614.62
424.733	686.62
424.956	796.62
425.178	750.62
425.401	733.62
425.623	788.62
425.846	656.62
426.068	633.62
426.291	613.62
426.513	607.62
426.735	604.62
426.958	674.62
427.18	754.62
427.402	916.62
427.625	1048.62
427.847	880.62
428.069	748.62
428.292	680.62
428.514	612.62
428.736	602.62
428.958	596.62
429.181	568.62
429.403	552.62
429.625	561.62
429.847	630.62
430.069	680.62
430.292	700.62
430.514	589.62
430.736	574.62
430.958	566.62
431.18	554.62
431.402	553.62
431.624	529.62
431.846	527.62
432.068	546.62
432.29	541.62
432.512	529.62
432.734	538.62
432.956	553.62
433.178	545.62
433.4	576.62
433.622	535.62
433.844	568.62
434.066	553.62
434.287	555.62
434.509	573.62
434.731	578.62
434.953	561.62
435.175	577.62
435.397	609.62
435.618	609.62
435.84	664.62
436.062	778.62
436.284	857.62
436.505	692.62
436.727	627.62
436.949	590.62
437.17	596.62
437.392	571.62
437.614	598.62
437.835	596.62
438.057	711.62
438.278	827.62
438.5	844.62
438.721	908.62
438.943	893.62
439.165	716.62
439.386	633.62
439.608	648.62
439.829	642.62
440.05	664.62
440.272	716.62
440.493	665.62
440.715	612.62
440.936	592.62
441.158	596.62
441.379	555.62
441.6	578.62
441.822	608.62
442.043	668.62
442.264	749.62
442.486	834.62
442.707	686.62
442.928	638.62
443.149	650.62
443.371	701.62
443.592	711.62
443.813	820.62
444.034	919.62
444.255	732.62
444.476	644.62
444.698	646.62
444.919	627.62
445.14	716.62
445.361	668.62
445.582	684.62
445.803	747.62
446.024	884.62
446.245	880.62
446.466	823.62
446.687	709.62
446.908	627.62
447.129	576.62
447.35	598.62
447.571	564.62
447.792	568.62
448.013	567.62
448.234	611.62
448.455	661.62
448.675	772.62
448.896	912.62
449.117	749.62
449.338	689.62
449.559	860.62
449.779	1016.62
450	776.62
450.221	639.62
450.442	586.62
450.662	560.62
450.883	534.62
451.104	580.62
451.324	560.62
451.545	529.62
451.766	532.62
451.986	519.62
452.207	493.62
452.428	491.62
452.648	517.62
452.869	513.62
453.089	535.62
453.31	525.62
453.53	516.62
453.751	524.62
453.971	517.62
454.192	526.62
454.412	500.62
454.633	512.62
454.853	515.62
455.073	524.62
455.294	545.62
455.514	606.62
455.734	581.62
455.955	532.62
456.175	504.62
456.395	485.62
456.616	492.62
456.836	473.62
457.056	484.62
457.276	472.62
457.497	510.62
457.717	472.62
457.937	500.62
458.157	502.62
458.377	487.62
458.598	553.62
458.818	570.62
459.038	655.62
459.258	680.62
459.478	617.62
459.698	562.62
459.918	548.62
460.138	561.62
460.358	536.62
460.578	553.62
460.798	563.62
461.018	586.62
461.238	568.62
461.458	581.62
461.678	569.62
461.898	577.62
462.118	562.62
462.338	569.62
462.558	554.62
462.777	592.62
462.997	609.62
463.217	610.62
463.437	635.62
463.657	602.62
463.876	584.62
464.096	603.62
464.316	603.62
464.536	611.62
464.755	609.62
464.975	578.62
465.195	610.62
465.414	675.62
465.634	640.62
465.854	592.62
466.073	568.62
466.293	551.62
466.512	542.62
466.732	533.62
466.951	527.62
467.171	515.62
467.391	532.62
467.61	541.62
467.829	550.62
468.049	539.62
468.268	528.62
468.488	489.62
468.707	524.62
468.927	518.62
469.146	517.62
469.365	531.62
469.585	524.62
469.804	518.62
470.023	556.62
470.243	527.62
470.462	518.62
470.681	560.62
470.901	557.62
471.12	534.62
471.339	523.62
471.558	520.62
471.777	551.62
471.997	544.62
472.216	541.62
472.435	584.62
472.654	539.62
472.873	517.62
473.092	523.62
473.311	539.62
473.53	549.62
473.749	526.62
473.968	579.62
474.187	699.62
474.406	738.62
474.625	618.62
474.844	529.62
475.063	537.62
475.282	520.62
475.501	535.62
475.72	537.62
475.939	566.62
476.158	553.62
476.377	562.62
476.596	548.62
476.814	542.62
477.033	572.62
477.252	569.62
477.471	592.62
477.69	564.62
477.908	579.62
478.127	591.62
478.346	585.62
478.564	599.62
478.783	614.62
479.002	581.62
479.22	601.62
479.439	634.62
479.658	644.62
479.876	617.62
480.095	653.62
480.313	673.62
480.532	662.62
480.751	641.62
480.969	657.62
481.188	703.62
481.406	730.62
481.624	674.62
481.843	660.62
482.061	622.62
482.28	630.62
482.498	630.62
482.717	621.62
482.935	631.62
483.153	617.62
483.372	631.62
483.59	649.62
483.808	638.62
484.027	615.62
484.245	640.62
484.463	634.62
484.681	627.62
484.9	631.62
485.118	650.62
485.336	632.62
485.554	649.62
485.772	680.62
485.99	634.62
486.209	677.62
486.427	658.62
486.645	682.62
486.863	666.62
487.081	668.62
487.299	684.62
487.517	683.62
487.735	662.62
487.953	656.62
488.171	648.62
488.389	649.62
488.607	668.62
488.825	669.62
489.043	681.62
489.261	678.62
489.479	686.62
489.696	690.62
489.914	693.62
490.132	698.62
490.35	716.62
490.568	672.62
490.786	703.62
491.003	701.62
491.221	739.62
491.439	727.62
491.657	733.62
491.874	752.62
492.092	751.62
492.31	753.62
492.527	741.62
492.745	760.62
492.963	788.62
493.18	754.62
493.398	769.62
493.615	770.62
493.833	790.62
494.05	778.62
494.268	776.62
494.485	779.62
494.703	756.62
494.92	780.62
495.138	788.62
495.355	801.62
495.573	776.62
495.79	794.62
496.008	797.62
496.225	800.62
496.442	772.62
496.66	781.62
496.877	787.62
497.094	808.62
497.312	816.62
497.529	841.62
497.746	842.62
497.963	843.62
498.181	854.62
498.398	864.62
498.615	888.62
498.832	907.62
499.049	932.62
499.267	978.62
499.484	983.62
499.701	980.62
499.918	1059.62
500.135	1091.62
500.352	1158.62
500.569	1158.62
500.786	1154.62
501.003	1154.62
501.22	1101.62
501.437	1089.62
501.654	1052.62
501.871	1020.62
502.088	981.62
502.305	969.62
502.522	920.62
502.739	884.62
502.956	864.62
503.172	846.62
503.389	877.62
503.606	846.62
503.823	832.62
504.04	841.62
504.256	820.62
504.473	818.62
504.69	796.62
504.907	808.62
505.123	788.62
505.34	774.62
505.557	783.62
505.773	764.62
505.99	756.62
506.207	776.62
506.423	770.62
506.64	761.62
506.856	723.62
507.073	704.62
507.289	756.62
507.506	752.62
507.722	718.62
507.939	766.62
508.155	739.62
508.372	728.62
508.588	691.62
508.805	712.62
509.021	732.62
509.238	730.62
509.454	733.62
509.67	726.62
509.887	692.62
510.103	685.62
510.319	706.62
510.536	805.62
510.752	1215.62
510.968	1024.62
511.184	732.62
511.401	681.62
511.617	686.62
511.833	690.62
512.049	688.62
512.265	695.62
512.481	667.62
512.698	700.62
512.914	678.62
513.13	661.62
513.346	653.62
513.562	663.62
513.778	672.62
513.994	677.62
514.21	684.62
514.426	694.62
514.642	772.62
514.858	789.62
515.074	796.62
515.29	917.62
515.506	1272.62
515.721	1080.62
515.937	780.62
516.153	744.62
516.369	738.62
516.585	720.62
516.801	709.62
517.016	706.62
517.232	703.62
517.448	727.62
517.664	715.62
517.879	728.62
518.095	712.62
518.311	694.62
518.527	700.62
518.742	683.62
518.958	700.62
519.173	709.62
519.389	675.62
519.605	688.62
519.82	690.62
520.036	686.62
520.251	718.62
520.467	713.62
520.682	735.62
520.898	733.62
521.113	730.62
521.329	797.62
521.544	866.62
521.76	1024.62
521.975	1606.62
522.19	1586.62
522.406	949.62
522.621	759.62
522.836	708.62
523.052	681.62
523.267	642.62
523.482	649.62
523.698	624.62
523.913	636.62
524.128	629.62
524.343	600.62
524.559	622.62
524.774	589.62
524.989	604.62
525.204	619.62
525.419	611.62
525.634	600.62
525.849	579.62
526.064	601.62
526.28	586.62
526.495	584.62
526.71	557.62
526.925	576.62
527.14	557.62
527.355	568.62
527.57	560.62
527.785	562.62
527.999	565.62
528.214	566.62
528.429	564.62
528.644	571.62
528.859	594.62
529.074	581.62
529.289	571.62
529.503	652.62
529.718	636.62
529.933	606.62
530.148	559.62
530.363	593.62
530.577	543.62
530.792	565.62
531.007	564.62
531.221	548.62
531.436	565.62
531.651	550.62
531.865	541.62
532.08	539.62
532.295	540.62
532.509	534.62
532.724	539.62
532.938	550.62
533.153	535.62
533.367	530.62
533.582	530.62
533.796	534.62
534.011	500.62
534.225	533.62
534.44	500.62
534.654	519.62
534.868	532.62
535.083	513.62
535.297	533.62
535.511	542.62
535.726	561.62
535.94	536.62
536.154	550.62
536.369	538.62
536.583	546.62
536.797	527.62
537.011	524.62
537.225	519.62
537.44	512.62
537.654	519.62
537.868	513.62
538.082	509.62
538.296	527.62
538.51	516.62
538.724	525.62
538.938	492.62
539.153	511.62
539.367	536.62
539.581	522.62
539.795	526.62
540.009	514.62
540.222	519.62
540.436	491.62
540.65	541.62
540.864	514.62
541.078	518.62
541.292	530.62
541.506	482.62
541.72	492.62
541.934	499.62
542.147	491.62
542.361	505.62
542.575	481.62
542.789	498.62
543.002	514.62
543.216	506.62
543.43	524.62
543.644	513.62
543.857	491.62
544.071	490.62
544.285	479.62
544.498	491.62
544.712	487.62
544.925	513.62
545.139	508.62
545.352	508.62
545.566	544.62
545.779	506.62
545.993	490.62
546.206	516.62
546.42	507.62
546.633	490.62
546.847	485.62
547.06	488.62
547.274	491.62
547.487	499.62
547.7	485.62
547.914	503.62
548.127	484.62
548.34	493.62
548.554	468.62
548.767	458.62
548.98	480.62
549.193	487.62
549.407	488.62
549.62	498.62
549.833	497.62
550.046	491.62
550.259	482.62
550.473	475.62
550.686	496.62
550.899	476.62
551.112	475.62
551.325	506.62
551.538	487.62
551.751	497.62
551.964	498.62
552.177	478.62
552.39	484.62
552.603	496.62
552.816	497.62
553.029	490.62
553.242	500.62
553.455	510.62
553.667	512.62
553.88	505.62
554.093	502.62
554.306	520.62
554.519	498.62
554.732	485.62
554.944	480.62
555.157	459.62
555.37	476.62
555.583	472.62
555.795	467.62
556.008	475.62
556.221	469.62
556.433	460.62
556.646	452.62
556.859	457.62
557.071	450.62
557.284	443.62
557.496	460.62
557.709	423.62
557.921	464.62
558.134	454.62
558.346	427.62
558.559	436.62
558.771	426.62
558.984	451.62
559.196	436.62
559.409	444.62
559.621	402.62
559.833	438.62
560.046	434.62
560.258	444.62
560.47	421.62
560.683	436.62
560.895	459.62
561.107	441.62
561.32	437.62
561.532	437.62
561.744	465.62
561.956	435.62
562.168	426.62
562.381	424.62
562.593	449.62
562.805	452.62
563.017	448.62
563.229	437.62
563.441	455.62
563.653	451.62
563.865	453.62
564.077	446.62
564.289	453.62
564.501	473.62
564.713	460.62
564.925	456.62
565.137	485.62
565.349	487.62
565.561	479.62
565.773	503.62
565.985	486.62
566.197	489.62
566.408	525.62
566.62	520.62
566.832	552.62
567.044	552.62
567.255	541.62
567.467	544.62
567.679	570.62
567.891	585.62
568.102	557.62
568.314	570.62
568.526	539.62
568.737	516.62
568.949	522.62
569.161	467.62
569.372	468.62
569.584	484.62
569.795	489.62
570.007	465.62
570.218	498.62
570.43	466.62
570.641	465.62
570.853	460.62
571.064	442.62
571.276	436.62
571.487	434.62
571.698	424.62
571.91	429.62
572.121	410.62
572.333	407.62
572.544	403.62
572.755	407.62
572.966	410.62
573.178	386.62
573.389	392.62
573.6	405.62
573.811	407.62
574.023	383.62
574.234	393.62
574.445	393.62
574.656	404.62
574.867	390.62
575.078	380.62
575.289	394.62
575.501	410.62
575.712	388.62
575.923	378.62
576.134	386.62
576.345	395.62
576.556	385.62
576.767	374.62
576.978	378.62
577.188	371.62
577.399	370.62
577.61	358.62
577.821	352.62
578.032	390.62
578.243	395.62
578.454	617.62
578.665	460.62
578.875	376.62
579.086	362.62
579.297	370.62
579.508	358.62
579.718	352.62
579.929	372.62
580.14	342.62
580.35	368.62
580.561	364.62
580.772	342.62
580.982	343.62
581.193	333.62
581.403	346.62
581.614	352.62
581.825	340.62
582.035	349.62
582.246	343.62
582.456	341.62
582.667	341.62
582.877	334.62
583.087	331.62
583.298	343.62
583.508	342.62
583.719	334.62
583.929	368.62
584.139	353.62
584.35	336.62
584.56	350.62
584.77	352.62
584.981	348.62
585.191	343.62
585.401	361.62
585.611	344.62
585.821	339.62
586.032	332.62
586.242	349.62
586.452	346.62
586.662	328.62
586.872	324.62
587.082	333.62
587.292	345.62
587.502	322.62
587.713	334.62
587.923	341.62
588.133	336.62
588.343	333.62
588.553	320.62
588.762	330.62
588.972	334.62
589.182	341.62
589.392	309.62
589.602	327.62
589.812	321.62
590.022	329.62
590.232	310.62
590.441	342.62
590.651	346.62
590.861	337.62
591.071	333.62
591.281	340.62
591.49	339.62
591.7	346.62
591.91	340.62
592.119	344.62
592.329	345.62
592.539	348.62
592.748	352.62
592.958	353.62
593.167	378.62
593.377	350.62
593.587	370.62
593.796	355.62
594.006	351.62
594.215	357.62
594.424	349.62
594.634	362.62
594.843	344.62
595.053	332.62
595.262	329.62
595.472	328.62
595.681	333.62
595.89	320.62
596.1	313.62
596.309	336.62
596.518	307.62
596.727	322.62
596.937	320.62
597.146	315.62
597.355	297.62
597.564	310.62
597.774	310.62
597.983	309.62
598.192	308.62
598.401	312.62
598.61	296.62
598.819	290.62
599.028	295.62
599.237	296.62
599.446	304.62
599.655	300.62
599.864	274.62
600.073	270.62
600.282	289.62
600.491	298.62
600.7	288.62
600.909	274.62
601.118	290.62
601.327	280.62
601.536	284.62
601.745	302.62
601.953	277.62
602.162	301.62
602.371	304.62
602.58	264.62
602.789	296.62
602.997	265.62
603.206	250.62
603.415	267.62
603.623	284.62
603.832	272.62
604.041	275.62
604.249	284.62
604.458	284.62
604.666	270.62
604.875	266.62
605.084	271.62
605.292	273.62
605.501	284.62
605.709	285.62
605.918	270.62
606.126	274.62
606.334	283.62
606.543	266.62
606.751	269.62
606.96	260.62
607.168	270.62
607.376	262.62
607.585	281.62
607.793	261.62
608.001	265.62
608.21	261.62
608.418	266.62
608.626	239.62
608.834	278.62
609.043	257.62
609.251	264.62
609.459	263.62
609.667	271.62
609.875	249.62
610.083	264.62
610.291	270.62
610.499	274.62
610.707	262.62
610.916	277.62
611.124	271.62
611.332	275.62
611.54	274.62
611.748	265.62
611.955	264.62
612.163	263.62
612.371	253.62
612.579	240.62
612.787	271.62
612.995	277.62
613.203	251.62
613.411	250.62
613.618	273.62
613.826	242.62
614.034	248.62
614.242	250.62
614.449	252.62
614.657	245.62
614.865	255.62
615.072	276.62
615.28	267.62
615.488	268.62
615.695	263.62
615.903	254.62
616.111	254.62
616.318	244.62
616.526	257.62
616.733	279.62
616.941	264.62
617.148	270.62
617.356	252.62
617.563	261.62
617.771	268.62
617.978	261.62
618.185	241.62
618.393	240.62
618.6	244.62
618.807	266.62
619.015	272.62
619.222	260.62
619.429	243.62
619.637	254.62
619.844	249.62
620.051	237.62
620.258	243.62
620.466	239.62
620.673	232.62
620.88	229.62
621.087	249.62
621.294	240.62
621.501	234.62
621.708	245.62
621.915	244.62
622.122	249.62
622.329	253.62
622.536	237.62
622.743	224.62
622.95	238.62
623.157	228.62
623.364	242.62
623.571	232.62
623.778	244.62
623.985	228.62
624.192	242.62
624.399	222.62
624.606	222.62
624.812	230.62
625.019	233.62
625.226	218.62
625.433	224.62
625.639	213.62
625.846	219.62
626.053	227.62
626.259	229.62
626.466	231.62
626.673	213.62
626.879	222.62
627.086	217.62
627.293	212.62
627.499	215.62
627.706	214.62
627.912	219.62
628.119	219.62
628.325	227.62
628.532	214.62
628.738	213.62
628.945	231.62
629.151	208.62
629.357	210.62
629.564	217.62
629.77	209.62
629.976	232.62
630.183	218.62
630.389	209.62
630.595	203.62
630.802	205.62
631.008	201.62
631.214	204.62
631.42	219.62
631.627	206.62
631.833	217.62
632.039	203.62
632.245	211.62
632.451	213.62
632.657	195.62
632.863	191.62
633.069	194.62
633.275	211.62
633.481	199.62
633.688	208.62
633.893	213.62
634.099	197.62
634.305	186.62
634.511	202.62
634.717	190.62
634.923	213.62
635.129	179.62
635.335	187.62
635.541	192.62
635.747	199.62
635.952	197.62
636.158	202.62
636.364	203.62
636.57	204.62
636.775	188.62
636.981	206.62
637.187	198.62
637.392	190.62
637.598	197.62
637.804	177.62
638.009	193.62
638.215	220.62
638.421	188.62
638.626	198.62
638.832	178.62
639.037	176.62
639.243	179.62
639.448	171.62
639.654	190.62
639.859	175.62
640.065	181.62
640.27	193.62
640.475	196.62
640.681	188.62
640.886	187.62
641.091	186.62
641.297	196.62
641.502	198.62
641.707	194.62
641.913	201.62
642.118	170.62
642.323	176.62
642.528	188.62
642.733	178.62
642.939	173.62
643.144	174.62
643.349	169.62
643.554	172.62
643.759	173.62
643.964	173.62
644.169	171.62
644.374	168.62
644.579	178.62
644.784	169.62
644.989	180.62
645.194	180.62
645.399	177.62
645.604	168.62
645.809	182.62
646.014	187.62
646.219	177.62
646.423	192.62
646.628	176.62
646.833	180.62
647.038	173.62
647.243	176.62
647.447	184.62
647.652	184.62
647.857	180.62
648.062	177.62
648.266	172.62
648.471	188.62
648.676	203.62
648.88	190.62
649.085	173.62
649.289	162.62
649.494	165.62
649.698	220.62
649.903	213.62
650.107	190.62
650.312	170.62
650.516	156.62
650.721	178.62
650.925	178.62
651.13	161.62
651.334	178.62
651.539	167.62
651.743	164.62
651.947	152.62
652.152	156.62
652.356	147.62
652.56	172.62
652.764	150.62
652.969	155.62
653.173	150.62
653.377	138.62
653.581	142.62
653.785	155.62
653.99	141.62
654.194	132.62
654.398	144.62
654.602	162.62
654.806	155.62
655.01	148.62
655.214	137.62
655.418	146.62
655.622	134.62
655.826	151.62
656.03	134.62
656.234	153.62
656.438	156.62
656.642	138.62
656.846	134.62
657.049	138.62
657.253	128.62
657.457	124.62
657.661	126.62
657.865	128.62
658.068	96.62
658.272	106.62
658.476	104.62
658.68	94.62
658.883	113.62
659.087	99.62
659.291	114.62
659.494	105.62
659.698	104.62
659.901	108.62
660.105	96.62
660.309	106.62
660.512	108.62
660.716	105.62
660.919	95.62
661.123	97.62
661.326	90.62
661.53	91.62
661.733	79.62
661.936	77.62
662.14	101.62
662.343	72.62
662.546	85.62
662.75	89.62
662.953	89.62
663.156	83.62
663.36	70.62
663.563	96.62
663.766	88.62
663.969	81.62
664.173	89.62
664.376	84.62
664.579	82.62
664.782	87.62
664.985	84.62
665.188	95.62
665.391	82.62
665.594	86.62
665.797	88.62
666	77.62
666.203	85.62
666.406	88.62
666.609	84.62
666.812	78.62
667.015	81.62
667.218	87.62
667.421	76.62
667.624	86.62
667.827	94.62
668.03	80.62
668.232	66.62
668.435	84.62
668.638	80.62
668.841	76.62
669.043	70.62
669.246	98.62
669.449	92.62
669.651	69.62
669.854	73.62
670.057	87.62
670.259	71.62
670.462	76.62
670.665	89.62
670.867	77.62
671.07	74.62
671.272	77.62
671.475	85.62
671.677	87.62
671.88	84.62
672.082	78.62
672.284	87.62
672.487	92.62
672.689	76.62
672.892	78.62
