Data from 1979.PennyLincolnUp.Lamp.En5.5.200Scan.071719.P1_HRD10591_16-20-18-863.txt Node
Date: Thu Jul 18 16:20:18 EDT 2019
User: cochatt
Spectrometer: HR+D1059
Trigger mode: 1
Integration Time (sec): 1.000000E-1
Scans to average: 1
Electric dark correction enabled: true
Nonlinearity correction enabled: false
Boxcar width: 0
XAxis mode: Wavelengths
Number of Pixels in Spectrum: 2048
>>>>>Begin Spectral Data<<<<<
223.165	-10.75
223.4	-10.75
223.635	-10.75
223.869	-5.75
224.104	-25.75
224.338	-17.75
224.573	-11.75
224.808	-12.75
225.042	-5.75
225.277	-1.75
225.511	-2.75
225.746	6.25
225.98	-0.75
226.215	14.25
226.449	10.25
226.683	8.25
226.918	27.25
227.152	29.25
227.387	41.25
227.621	38.25
227.856	37.25
228.09	42.25
228.324	28.25
228.559	51.25
228.793	59.25
229.027	105.25
229.262	102.25
229.496	126.25
229.73	139.25
229.964	135.25
230.199	124.25
230.433	106.25
230.667	115.25
230.901	104.25
231.136	97.25
231.37	120.25
231.604	130.25
231.838	120.25
232.072	104.25
232.306	124.25
232.541	118.25
232.775	101.25
233.009	111.25
233.243	125.25
233.477	115.25
233.711	103.25
233.945	120.25
234.179	121.25
234.413	126.25
234.647	119.25
234.881	108.25
235.115	108.25
235.349	124.25
235.583	120.25
235.817	120.25
236.051	128.25
236.285	127.25
236.519	130.25
236.753	131.25
236.987	132.25
237.221	176.25
237.455	234.25
237.689	190.25
237.922	144.25
238.156	133.25
238.39	134.25
238.624	124.25
238.858	126.25
239.091	124.25
239.325	124.25
239.559	129.25
239.793	123.25
240.027	139.25
240.26	147.25
240.494	134.25
240.728	154.25
240.961	148.25
241.195	135.25
241.429	155.25
241.662	143.25
241.896	138.25
242.13	142.25
242.363	110.25
242.597	126.25
242.83	144.25
243.064	141.25
243.298	156.25
243.531	135.25
243.765	144.25
243.998	141.25
244.232	157.25
244.465	140.25
244.699	132.25
244.932	144.25
245.166	134.25
245.399	143.25
245.633	143.25
245.866	152.25
246.099	163.25
246.333	144.25
246.566	158.25
246.8	153.25
247.033	179.25
247.266	167.25
247.5	157.25
247.733	170.25
247.966	166.25
248.2	166.25
248.433	161.25
248.666	173.25
248.899	194.25
249.133	189.25
249.366	199.25
249.599	188.25
249.832	183.25
250.066	195.25
250.299	191.25
250.532	190.25
250.765	176.25
250.998	219.25
251.231	214.25
251.465	219.25
251.698	206.25
251.931	197.25
252.164	208.25
252.397	203.25
252.63	205.25
252.863	206.25
253.096	211.25
253.329	221.25
253.562	223.25
253.795	199.25
254.028	208.25
254.261	209.25
254.494	211.25
254.727	236.25
254.96	272.25
255.193	245.25
255.426	236.25
255.659	219.25
255.892	219.25
256.124	226.25
256.357	226.25
256.59	228.25
256.823	207.25
257.056	214.25
257.289	210.25
257.521	208.25
257.754	212.25
257.987	226.25
258.22	199.25
258.452	187.25
258.685	202.25
258.918	212.25
259.151	216.25
259.383	220.25
259.616	212.25
259.849	231.25
260.081	229.25
260.314	237.25
260.547	261.25
260.779	235.25
261.012	246.25
261.244	223.25
261.477	218.25
261.71	221.25
261.942	224.25
262.175	237.25
262.407	222.25
262.64	224.25
262.872	213.25
263.105	211.25
263.337	210.25
263.57	218.25
263.802	215.25
264.035	231.25
264.267	203.25
264.499	188.25
264.732	217.25
264.964	209.25
265.197	215.25
265.429	216.25
265.661	196.25
265.894	206.25
266.126	207.25
266.358	204.25
266.591	208.25
266.823	245.25
267.055	235.25
267.287	226.25
267.52	223.25
267.752	223.25
267.984	218.25
268.216	233.25
268.448	224.25
268.681	227.25
268.913	242.25
269.145	270.25
269.377	276.25
269.609	277.25
269.841	253.25
270.073	266.25
270.306	266.25
270.538	301.25
270.77	284.25
271.002	282.25
271.234	276.25
271.466	291.25
271.698	301.25
271.93	287.25
272.162	304.25
272.394	303.25
272.626	278.25
272.858	278.25
273.09	275.25
273.322	283.25
273.553	275.25
273.785	272.25
274.017	269.25
274.249	253.25
274.481	244.25
274.713	244.25
274.945	260.25
275.176	260.25
275.408	271.25
275.64	249.25
275.872	269.25
276.104	274.25
276.335	282.25
276.567	276.25
276.799	302.25
277.031	293.25
277.262	318.25
277.494	311.25
277.726	292.25
277.957	266.25
278.189	278.25
278.421	282.25
278.652	276.25
278.884	268.25
279.115	264.25
279.347	262.25
279.579	269.25
279.81	259.25
280.042	278.25
280.273	278.25
280.505	267.25
280.736	268.25
280.968	280.25
281.199	276.25
281.431	267.25
281.662	271.25
281.894	256.25
282.125	271.25
282.356	302.25
282.588	312.25
282.819	308.25
283.051	282.25
283.282	278.25
283.513	282.25
283.745	280.25
283.976	290.25
284.207	294.25
284.439	270.25
284.67	268.25
284.901	278.25
285.132	285.25
285.364	278.25
285.595	271.25
285.826	287.25
286.057	288.25
286.288	249.25
286.52	284.25
286.751	292.25
286.982	298.25
287.213	277.25
287.444	281.25
287.675	311.25
287.906	290.25
288.138	286.25
288.369	300.25
288.6	313.25
288.831	300.25
289.062	282.25
289.293	291.25
289.524	285.25
289.755	303.25
289.986	298.25
290.217	296.25
290.448	278.25
290.679	298.25
290.91	297.25
291.141	301.25
291.371	303.25
291.602	288.25
291.833	321.25
292.064	294.25
292.295	292.25
292.526	298.25
292.757	294.25
292.987	290.25
293.218	286.25
293.449	310.25
293.68	307.25
293.91	286.25
294.141	299.25
294.372	296.25
294.603	301.25
294.833	296.25
295.064	297.25
295.295	300.25
295.525	298.25
295.756	295.25
295.987	320.25
296.217	336.25
296.448	348.25
296.679	316.25
296.909	307.25
297.14	296.25
297.37	322.25
297.601	315.25
297.831	320.25
298.062	308.25
298.292	317.25
298.523	317.25
298.753	301.25
298.984	327.25
299.214	329.25
299.445	318.25
299.675	312.25
299.905	287.25
300.136	331.25
300.366	331.25
300.597	330.25
300.827	344.25
301.057	337.25
301.288	346.25
301.518	345.25
301.748	333.25
301.979	339.25
302.209	336.25
302.439	315.25
302.669	346.25
302.9	328.25
303.13	315.25
303.36	346.25
303.59	339.25
303.82	347.25
304.051	355.25
304.281	355.25
304.511	335.25
304.741	339.25
304.971	336.25
305.201	346.25
305.431	325.25
305.661	338.25
305.891	343.25
306.121	333.25
306.352	336.25
306.582	357.25
306.812	347.25
307.042	355.25
307.272	329.25
307.502	339.25
307.731	347.25
307.961	339.25
308.191	348.25
308.421	341.25
308.651	355.25
308.881	369.25
309.111	359.25
309.341	374.25
309.571	345.25
309.8	384.25
310.03	372.25
310.26	365.25
310.49	375.25
310.72	390.25
310.949	394.25
311.179	415.25
311.409	372.25
311.639	389.25
311.868	381.25
312.098	396.25
312.328	401.25
312.557	417.25
312.787	419.25
313.017	435.25
313.246	401.25
313.476	388.25
313.706	374.25
313.935	399.25
314.165	394.25
314.394	414.25
314.624	394.25
314.853	399.25
315.083	417.25
315.312	404.25
315.542	381.25
315.771	379.25
316.001	378.25
316.23	385.25
316.46	367.25
316.689	384.25
316.919	408.25
317.148	434.25
317.377	418.25
317.607	399.25
317.836	395.25
318.065	384.25
318.295	377.25
318.524	382.25
318.753	390.25
318.983	389.25
319.212	377.25
319.441	406.25
319.67	396.25
319.9	406.25
320.129	397.25
320.358	390.25
320.587	403.25
320.816	392.25
321.046	412.25
321.275	427.25
321.504	414.25
321.733	411.25
321.962	419.25
322.191	429.25
322.42	444.25
322.649	440.25
322.878	457.25
323.108	468.25
323.337	488.25
323.566	501.25
323.795	542.25
324.024	557.25
324.253	667.25
324.482	912.25
324.71	1496.25
324.939	2220.25
325.168	1895.25
325.397	930.25
325.626	652.25
325.855	553.25
326.084	510.25
326.313	520.25
326.542	488.25
326.77	562.25
326.999	644.25
327.228	875.25
327.457	1336.25
327.686	1703.25
327.914	1044.25
328.143	682.25
328.372	605.25
328.6	589.25
328.829	574.25
329.058	596.25
329.287	591.25
329.515	536.25
329.744	505.25
329.972	507.25
330.201	535.25
330.43	570.25
330.658	578.25
330.887	612.25
331.115	595.25
331.344	528.25
331.572	507.25
331.801	505.25
332.03	487.25
332.258	486.25
332.486	493.25
332.715	442.25
332.943	492.25
333.172	492.25
333.4	521.25
333.629	478.25
333.857	504.25
334.085	515.25
334.314	526.25
334.542	554.25
334.771	577.25
334.999	540.25
335.227	532.25
335.455	490.25
335.684	503.25
335.912	474.25
336.14	471.25
336.369	485.25
336.597	475.25
336.825	474.25
337.053	471.25
337.281	447.25
337.51	476.25
337.738	475.25
337.966	481.25
338.194	481.25
338.422	461.25
338.65	463.25
338.878	447.25
339.106	468.25
339.334	446.25
339.562	440.25
339.79	438.25
340.018	453.25
340.246	462.25
340.474	463.25
340.702	465.25
340.93	464.25
341.158	460.25
341.386	466.25
341.614	450.25
341.842	449.25
342.07	422.25
342.298	461.25
342.526	435.25
342.754	428.25
342.981	445.25
343.209	424.25
343.437	466.25
343.665	449.25
343.893	458.25
344.12	485.25
344.348	461.25
344.576	454.25
344.804	485.25
345.031	469.25
345.259	448.25
345.487	464.25
345.714	438.25
345.942	439.25
346.17	431.25
346.397	427.25
346.625	456.25
346.853	426.25
347.08	417.25
347.308	434.25
347.535	451.25
347.763	423.25
347.99	446.25
348.218	435.25
348.445	430.25
348.673	446.25
348.9	453.25
349.128	422.25
349.355	418.25
349.583	440.25
349.81	412.25
350.037	434.25
350.265	426.25
350.492	432.25
350.72	415.25
350.947	440.25
351.174	438.25
351.402	454.25
351.629	431.25
351.856	434.25
352.083	440.25
352.311	455.25
352.538	441.25
352.765	450.25
352.992	426.25
353.22	438.25
353.447	436.25
353.674	418.25
353.901	419.25
354.128	426.25
354.355	423.25
354.583	415.25
354.81	422.25
355.037	424.25
355.264	414.25
355.491	406.25
355.718	419.25
355.945	412.25
356.172	398.25
356.399	402.25
356.626	405.25
356.853	412.25
357.08	395.25
357.307	395.25
357.534	406.25
357.761	410.25
357.988	434.25
358.215	421.25
358.441	402.25
358.668	420.25
358.895	435.25
359.122	418.25
359.349	420.25
359.576	442.25
359.802	454.25
360.029	501.25
360.256	489.25
360.483	489.25
360.709	451.25
360.936	427.25
361.163	430.25
361.39	434.25
361.616	422.25
361.843	412.25
362.07	422.25
362.296	439.25
362.523	449.25
362.749	443.25
362.976	432.25
363.203	417.25
363.429	428.25
363.656	420.25
363.882	421.25
364.109	418.25
364.335	422.25
364.562	420.25
364.788	441.25
365.015	430.25
365.241	421.25
365.468	440.25
365.694	419.25
365.92	431.25
366.147	445.25
366.373	432.25
366.599	408.25
366.826	416.25
367.052	421.25
367.278	438.25
367.505	434.25
367.731	425.25
367.957	427.25
368.184	431.25
368.41	418.25
368.636	420.25
368.862	446.25
369.089	444.25
369.315	422.25
369.541	433.25
369.767	442.25
369.993	427.25
370.219	432.25
370.445	418.25
370.672	428.25
370.898	442.25
371.124	456.25
371.35	414.25
371.576	428.25
371.802	427.25
372.028	442.25
372.254	420.25
372.48	432.25
372.706	438.25
372.932	438.25
373.158	440.25
373.384	444.25
373.61	436.25
373.835	440.25
374.061	440.25
374.287	447.25
374.513	429.25
374.739	436.25
374.965	436.25
375.191	435.25
375.416	446.25
375.642	451.25
375.868	456.25
376.094	445.25
376.319	441.25
376.545	428.25
376.771	426.25
376.997	405.25
377.222	433.25
377.448	452.25
377.674	436.25
377.899	436.25
378.125	446.25
378.35	424.25
378.576	426.25
378.802	436.25
379.027	443.25
379.253	437.25
379.478	435.25
379.704	416.25
379.929	442.25
380.155	438.25
380.38	441.25
380.606	434.25
380.831	450.25
381.057	447.25
381.282	448.25
381.507	435.25
381.733	449.25
381.958	463.25
382.184	459.25
382.409	457.25
382.634	466.25
382.86	448.25
383.085	443.25
383.31	460.25
383.535	458.25
383.761	472.25
383.986	475.25
384.211	448.25
384.436	469.25
384.662	470.25
384.887	467.25
385.112	493.25
385.337	474.25
385.562	488.25
385.787	484.25
386.013	489.25
386.238	483.25
386.463	494.25
386.688	496.25
386.913	489.25
387.138	484.25
387.363	477.25
387.588	503.25
387.813	495.25
388.038	483.25
388.263	483.25
388.488	467.25
388.713	474.25
388.938	464.25
389.163	474.25
389.387	512.25
389.612	491.25
389.837	484.25
390.062	472.25
390.287	481.25
390.512	485.25
390.736	479.25
390.961	505.25
391.186	516.25
391.411	504.25
391.636	515.25
391.86	500.25
392.085	516.25
392.31	527.25
392.534	504.25
392.759	521.25
392.984	516.25
393.208	525.25
393.433	509.25
393.658	486.25
393.882	485.25
394.107	500.25
394.331	492.25
394.556	479.25
394.78	502.25
395.005	514.25
395.229	481.25
395.454	506.25
395.678	520.25
395.903	528.25
396.127	574.25
396.352	536.25
396.576	544.25
396.801	520.25
397.025	512.25
397.249	495.25
397.474	527.25
397.698	543.25
397.922	551.25
398.147	552.25
398.371	566.25
398.595	566.25
398.82	575.25
399.044	578.25
399.268	602.25
399.492	652.25
399.717	669.25
399.941	744.25
400.165	730.25
400.389	716.25
400.613	673.25
400.837	638.25
401.062	617.25
401.286	578.25
401.51	573.25
401.734	574.25
401.958	593.25
402.182	602.25
402.406	606.25
402.63	580.25
402.854	592.25
403.078	593.25
403.302	594.25
403.526	607.25
403.75	590.25
403.974	603.25
404.198	615.25
404.422	596.25
404.645	642.25
404.869	602.25
405.093	648.25
405.317	686.25
405.541	711.25
405.765	660.25
405.988	646.25
406.212	653.25
406.436	653.25
406.66	696.25
406.883	681.25
407.107	704.25
407.331	739.25
407.555	828.25
407.778	780.25
408.002	742.25
408.226	675.25
408.449	664.25
408.673	676.25
408.896	703.25
409.12	745.25
409.344	715.25
409.567	627.25
409.791	614.25
410.014	629.25
410.238	608.25
410.461	607.25
410.685	604.25
410.908	647.25
411.132	658.25
411.355	696.25
411.578	638.25
411.802	605.25
412.025	619.25
412.249	614.25
412.472	663.25
412.695	663.25
412.919	666.25
413.142	633.25
413.365	607.25
413.589	589.25
413.812	592.25
414.035	599.25
414.258	584.25
414.482	579.25
414.705	582.25
414.928	580.25
415.151	589.25
415.374	582.25
415.597	557.25
415.821	582.25
416.044	567.25
416.267	589.25
416.49	585.25
416.713	557.25
416.936	566.25
417.159	578.25
417.382	573.25
417.605	588.25
417.828	580.25
418.051	621.25
418.274	594.25
418.497	574.25
418.72	592.25
418.943	590.25
419.166	591.25
419.389	635.25
419.611	607.25
419.834	617.25
420.057	603.25
420.28	631.25
420.503	582.25
420.726	608.25
420.948	622.25
421.171	661.25
421.394	676.25
421.617	608.25
421.839	595.25
422.062	603.25
422.285	603.25
422.507	678.25
422.73	733.25
422.953	708.25
423.175	638.25
423.398	619.25
423.621	631.25
423.843	639.25
424.066	670.25
424.288	626.25
424.511	652.25
424.733	665.25
424.956	788.25
425.178	757.25
425.401	770.25
425.623	790.25
425.846	666.25
426.068	658.25
426.291	624.25
426.513	608.25
426.735	637.25
426.958	673.25
427.18	760.25
427.402	876.25
427.625	1008.25
427.847	863.25
428.069	751.25
428.292	674.25
428.514	637.25
428.736	603.25
428.958	611.25
429.181	584.25
429.403	574.25
429.625	584.25
429.847	621.25
430.069	719.25
430.292	683.25
430.514	606.25
430.736	590.25
430.958	578.25
431.18	581.25
431.402	558.25
431.624	556.25
431.846	553.25
432.068	570.25
432.29	565.25
432.512	558.25
432.734	565.25
432.956	603.25
433.178	570.25
433.4	578.25
433.622	559.25
433.844	564.25
434.066	594.25
434.287	579.25
434.509	568.25
434.731	575.25
434.953	583.25
435.175	577.25
435.397	623.25
435.618	635.25
435.84	704.25
436.062	782.25
436.284	849.25
436.505	697.25
436.727	634.25
436.949	612.25
437.17	597.25
437.392	598.25
437.614	605.25
437.835	614.25
438.057	754.25
438.278	852.25
438.5	812.25
438.721	908.25
438.943	884.25
439.165	679.25
439.386	651.25
439.608	642.25
439.829	634.25
440.05	680.25
440.272	695.25
440.493	674.25
440.715	623.25
440.936	592.25
441.158	603.25
441.379	586.25
441.6	597.25
441.822	643.25
442.043	682.25
442.264	782.25
442.486	833.25
442.707	684.25
442.928	638.25
443.149	658.25
443.371	675.25
443.592	699.25
443.813	830.25
444.034	868.25
444.255	724.25
444.476	704.25
444.698	680.25
444.919	657.25
445.14	740.25
445.361	676.25
445.582	678.25
445.803	750.25
446.024	847.25
446.245	856.25
446.466	777.25
446.687	683.25
446.908	627.25
447.129	606.25
447.35	588.25
447.571	605.25
447.792	579.25
448.013	587.25
448.234	591.25
448.455	639.25
448.675	778.25
448.896	887.25
449.117	766.25
449.338	716.25
449.559	847.25
449.779	937.25
450	747.25
450.221	631.25
450.442	587.25
450.662	588.25
450.883	584.25
451.104	577.25
451.324	571.25
451.545	560.25
451.766	552.25
451.986	524.25
452.207	516.25
452.428	489.25
452.648	537.25
452.869	533.25
453.089	515.25
453.31	528.25
453.53	526.25
453.751	533.25
453.971	519.25
454.192	557.25
454.412	540.25
454.633	505.25
454.853	524.25
455.073	511.25
455.294	564.25
455.514	614.25
455.734	611.25
455.955	519.25
456.175	497.25
456.395	488.25
456.616	466.25
456.836	481.25
457.056	499.25
457.276	471.25
457.497	474.25
457.717	486.25
457.937	495.25
458.157	519.25
458.377	518.25
458.598	547.25
458.818	585.25
459.038	671.25
459.258	704.25
459.478	620.25
459.698	576.25
459.918	552.25
460.138	564.25
460.358	573.25
460.578	598.25
460.798	586.25
461.018	594.25
461.238	581.25
461.458	585.25
461.678	588.25
461.898	600.25
462.118	608.25
462.338	595.25
462.558	603.25
462.777	645.25
462.997	648.25
463.217	668.25
463.437	668.25
463.657	622.25
463.876	628.25
464.096	664.25
464.316	629.25
464.536	634.25
464.755	622.25
464.975	634.25
465.195	667.25
465.414	733.25
465.634	654.25
465.854	610.25
466.073	565.25
466.293	569.25
466.512	568.25
466.732	536.25
466.951	554.25
467.171	545.25
467.391	538.25
467.61	533.25
467.829	555.25
468.049	557.25
468.268	566.25
468.488	546.25
468.707	536.25
468.927	533.25
469.146	528.25
469.365	525.25
469.585	514.25
469.804	550.25
470.023	540.25
470.243	543.25
470.462	557.25
470.681	576.25
470.901	576.25
471.12	565.25
471.339	563.25
471.558	567.25
471.777	541.25
471.997	545.25
472.216	562.25
472.435	610.25
472.654	550.25
472.873	567.25
473.092	529.25
473.311	550.25
473.53	555.25
473.749	550.25
473.968	603.25
474.187	686.25
474.406	716.25
474.625	564.25
474.844	582.25
475.063	566.25
475.282	559.25
475.501	571.25
475.72	580.25
475.939	567.25
476.158	550.25
476.377	563.25
476.596	576.25
476.814	581.25
477.033	616.25
477.252	602.25
477.471	603.25
477.69	604.25
477.908	604.25
478.127	597.25
478.346	614.25
478.564	604.25
478.783	626.25
479.002	638.25
479.22	655.25
479.439	642.25
479.658	662.25
479.876	669.25
480.095	683.25
480.313	687.25
480.532	685.25
480.751	687.25
480.969	689.25
481.188	770.25
481.406	771.25
481.624	718.25
481.843	699.25
482.061	666.25
482.28	654.25
482.498	649.25
482.717	614.25
482.935	615.25
483.153	649.25
483.372	642.25
483.59	635.25
483.808	642.25
484.027	640.25
484.245	631.25
484.463	645.25
484.681	667.25
484.9	653.25
485.118	668.25
485.336	675.25
485.554	656.25
485.772	662.25
485.99	652.25
486.209	662.25
486.427	699.25
486.645	664.25
486.863	701.25
487.081	684.25
487.299	708.25
487.517	703.25
487.735	682.25
487.953	706.25
488.171	691.25
488.389	681.25
488.607	700.25
488.825	695.25
489.043	694.25
489.261	702.25
489.479	686.25
489.696	685.25
489.914	698.25
490.132	695.25
490.35	709.25
490.568	723.25
490.786	743.25
491.003	738.25
491.221	769.25
491.439	766.25
491.657	758.25
491.874	751.25
492.092	778.25
492.31	760.25
492.527	806.25
492.745	763.25
492.963	764.25
493.18	782.25
493.398	797.25
493.615	825.25
493.833	795.25
494.05	770.25
494.268	812.25
494.485	779.25
494.703	788.25
494.92	801.25
495.138	784.25
495.355	830.25
495.573	845.25
495.79	827.25
496.008	798.25
496.225	822.25
496.442	827.25
496.66	806.25
496.877	818.25
497.094	832.25
497.312	828.25
497.529	831.25
497.746	818.25
497.963	878.25
498.181	903.25
498.398	918.25
498.615	933.25
498.832	932.25
499.049	985.25
499.267	1021.25
499.484	1042.25
499.701	1086.25
499.918	1109.25
500.135	1196.25
500.352	1259.25
500.569	1275.25
500.786	1290.25
501.003	1294.25
501.22	1211.25
501.437	1166.25
501.654	1144.25
501.871	1092.25
502.088	1038.25
502.305	1010.25
502.522	967.25
502.739	968.25
502.956	901.25
503.172	899.25
503.389	887.25
503.606	861.25
503.823	843.25
504.04	868.25
504.256	862.25
504.473	840.25
504.69	842.25
504.907	867.25
505.123	810.25
505.34	795.25
505.557	796.25
505.773	784.25
505.99	814.25
506.207	802.25
506.423	789.25
506.64	774.25
506.856	744.25
507.073	754.25
507.289	757.25
507.506	731.25
507.722	784.25
507.939	768.25
508.155	747.25
508.372	730.25
508.588	721.25
508.805	702.25
509.021	715.25
509.238	748.25
509.454	757.25
509.67	719.25
509.887	730.25
510.103	698.25
510.319	720.25
510.536	804.25
510.752	1339.25
510.968	1095.25
511.184	738.25
511.401	700.25
511.617	702.25
511.833	676.25
512.049	708.25
512.265	690.25
512.481	681.25
512.698	664.25
512.914	679.25
513.13	698.25
513.346	679.25
513.562	702.25
513.778	685.25
513.994	690.25
514.21	680.25
514.426	718.25
514.642	788.25
514.858	793.25
515.074	814.25
515.29	960.25
515.506	1361.25
515.721	1132.25
515.937	814.25
516.153	774.25
516.369	755.25
516.585	739.25
516.801	719.25
517.016	737.25
517.232	742.25
517.448	738.25
517.664	749.25
517.879	719.25
518.095	754.25
518.311	742.25
518.527	736.25
518.742	708.25
518.958	727.25
519.173	707.25
519.389	712.25
519.605	714.25
519.82	696.25
520.036	718.25
520.251	741.25
520.467	764.25
520.682	728.25
520.898	738.25
521.113	731.25
521.329	786.25
521.544	862.25
521.76	1058.25
521.975	1706.25
522.19	1739.25
522.406	959.25
522.621	773.25
522.836	709.25
523.052	703.25
523.267	671.25
523.482	651.25
523.698	611.25
523.913	623.25
524.128	645.25
524.343	617.25
524.559	593.25
524.774	584.25
524.989	639.25
525.204	615.25
525.419	617.25
525.634	592.25
525.849	591.25
526.064	558.25
526.28	535.25
526.495	570.25
526.71	589.25
526.925	594.25
527.14	584.25
527.355	575.25
527.57	570.25
527.785	574.25
527.999	593.25
528.214	570.25
528.429	575.25
528.644	566.25
528.859	576.25
529.074	591.25
529.289	579.25
529.503	679.25
529.718	666.25
529.933	599.25
530.148	588.25
530.363	551.25
530.577	571.25
530.792	573.25
531.007	562.25
531.221	551.25
531.436	573.25
531.651	560.25
531.865	562.25
532.08	571.25
532.295	551.25
532.509	565.25
532.724	556.25
532.938	542.25
533.153	562.25
533.367	555.25
533.582	555.25
533.796	546.25
534.011	546.25
534.225	576.25
534.44	542.25
534.654	516.25
534.868	532.25
535.083	526.25
535.297	540.25
535.511	546.25
535.726	572.25
535.94	548.25
536.154	548.25
536.369	543.25
536.583	542.25
536.797	534.25
537.011	536.25
537.225	515.25
537.44	532.25
537.654	516.25
537.868	524.25
538.082	521.25
538.296	528.25
538.51	512.25
538.724	542.25
538.938	507.25
539.153	533.25
539.367	536.25
539.581	524.25
539.795	512.25
540.009	493.25
540.222	550.25
540.436	536.25
540.65	541.25
540.864	516.25
541.078	541.25
541.292	549.25
541.506	524.25
541.72	523.25
541.934	528.25
542.147	515.25
542.361	498.25
542.575	538.25
542.789	518.25
543.002	522.25
543.216	498.25
543.43	524.25
543.644	509.25
543.857	522.25
544.071	521.25
544.285	526.25
544.498	525.25
544.712	505.25
544.925	526.25
545.139	517.25
545.352	528.25
545.566	510.25
545.779	500.25
545.993	536.25
546.206	515.25
546.42	531.25
546.633	525.25
546.847	525.25
547.06	496.25
547.274	522.25
547.487	526.25
547.7	505.25
547.914	522.25
548.127	515.25
548.34	531.25
548.554	518.25
548.767	503.25
548.98	506.25
549.193	526.25
549.407	519.25
549.62	506.25
549.833	531.25
550.046	502.25
550.259	514.25
550.473	512.25
550.686	492.25
550.899	490.25
551.112	492.25
551.325	492.25
551.538	484.25
551.751	511.25
551.964	472.25
552.177	494.25
552.39	498.25
552.603	514.25
552.816	496.25
553.029	523.25
553.242	517.25
553.455	532.25
553.667	542.25
553.88	551.25
554.093	535.25
554.306	524.25
554.519	517.25
554.732	504.25
554.944	497.25
555.157	501.25
555.37	486.25
555.583	473.25
555.795	459.25
556.008	487.25
556.221	466.25
556.433	468.25
556.646	463.25
556.859	466.25
557.071	470.25
557.284	464.25
557.496	461.25
557.709	454.25
557.921	487.25
558.134	455.25
558.346	469.25
558.559	452.25
558.771	446.25
558.984	457.25
559.196	445.25
559.409	441.25
559.621	451.25
559.833	436.25
560.046	452.25
560.258	447.25
560.47	444.25
560.683	418.25
560.895	453.25
561.107	432.25
561.32	430.25
561.532	439.25
561.744	450.25
561.956	463.25
562.168	432.25
562.381	448.25
562.593	454.25
562.805	458.25
563.017	456.25
563.229	463.25
563.441	470.25
563.653	476.25
563.865	484.25
564.077	458.25
564.289	471.25
564.501	461.25
564.713	471.25
564.925	491.25
565.137	498.25
565.349	470.25
565.561	516.25
565.773	522.25
565.985	493.25
566.197	529.25
566.408	534.25
566.62	553.25
566.832	538.25
567.044	605.25
567.255	576.25
567.467	614.25
567.679	609.25
567.891	614.25
568.102	616.25
568.314	608.25
568.526	593.25
568.737	571.25
568.949	546.25
569.161	511.25
569.372	500.25
569.584	460.25
569.795	485.25
570.007	464.25
570.218	492.25
570.43	481.25
570.641	467.25
570.853	442.25
571.064	432.25
571.276	431.25
571.487	428.25
571.698	425.25
571.91	427.25
572.121	430.25
572.333	434.25
572.544	412.25
572.755	409.25
572.966	394.25
573.178	396.25
573.389	409.25
573.6	421.25
573.811	400.25
574.023	388.25
574.234	408.25
574.445	392.25
574.656	407.25
574.867	384.25
575.078	390.25
575.289	382.25
575.501	374.25
575.712	372.25
575.923	397.25
576.134	386.25
576.345	380.25
576.556	364.25
576.767	374.25
576.978	374.25
577.188	367.25
577.399	364.25
577.61	352.25
577.821	378.25
578.032	366.25
578.243	412.25
578.454	611.25
578.665	460.25
578.875	382.25
579.086	346.25
579.297	370.25
579.508	375.25
579.718	351.25
579.929	363.25
580.14	374.25
580.35	342.25
580.561	353.25
580.772	363.25
580.982	360.25
581.193	373.25
581.403	359.25
581.614	349.25
581.825	349.25
582.035	354.25
582.246	338.25
582.456	341.25
582.667	343.25
582.877	341.25
583.087	341.25
583.298	354.25
583.508	363.25
583.719	325.25
583.929	349.25
584.139	351.25
584.35	336.25
584.56	337.25
584.77	328.25
584.981	351.25
585.191	358.25
585.401	348.25
585.611	310.25
585.821	319.25
586.032	328.25
586.242	335.25
586.452	350.25
586.662	344.25
586.872	344.25
587.082	335.25
587.292	327.25
587.502	342.25
587.713	342.25
587.923	314.25
588.133	335.25
588.343	324.25
588.553	329.25
588.762	331.25
588.972	322.25
589.182	347.25
589.392	342.25
589.602	337.25
589.812	341.25
590.022	331.25
590.232	346.25
590.441	326.25
590.651	319.25
590.861	342.25
591.071	344.25
591.281	328.25
591.49	328.25
591.7	334.25
591.91	342.25
592.119	354.25
592.329	356.25
592.539	376.25
592.748	343.25
592.958	349.25
593.167	346.25
593.377	363.25
593.587	371.25
593.796	377.25
594.006	389.25
594.215	366.25
594.424	334.25
594.634	346.25
594.843	359.25
595.053	344.25
595.262	345.25
595.472	343.25
595.681	324.25
595.89	349.25
596.1	326.25
596.309	327.25
596.518	321.25
596.727	316.25
596.937	330.25
597.146	317.25
597.355	318.25
597.564	314.25
597.774	306.25
597.983	292.25
598.192	307.25
598.401	295.25
598.61	326.25
598.819	324.25
599.028	306.25
599.237	301.25
599.446	289.25
599.655	296.25
599.864	306.25
600.073	278.25
600.282	292.25
600.491	284.25
600.7	297.25
600.909	298.25
601.118	299.25
601.327	286.25
601.536	289.25
601.745	303.25
601.953	279.25
602.162	292.25
602.371	290.25
602.58	276.25
602.789	287.25
602.997	284.25
603.206	278.25
603.415	283.25
603.623	294.25
603.832	287.25
604.041	278.25
604.249	280.25
604.458	282.25
604.666	284.25
604.875	264.25
605.084	255.25
605.292	273.25
605.501	290.25
605.709	276.25
605.918	291.25
606.126	271.25
606.334	272.25
606.543	274.25
606.751	278.25
606.96	281.25
607.168	262.25
607.376	254.25
607.585	271.25
607.793	287.25
608.001	291.25
608.21	277.25
608.418	276.25
608.626	262.25
608.834	271.25
609.043	267.25
609.251	264.25
609.459	270.25
609.667	279.25
609.875	261.25
610.083	277.25
610.291	259.25
610.499	286.25
610.707	263.25
610.916	267.25
611.124	262.25
611.332	270.25
611.54	282.25
611.748	256.25
611.955	272.25
612.163	265.25
612.371	258.25
612.579	269.25
612.787	249.25
612.995	264.25
613.203	265.25
613.411	259.25
613.618	268.25
613.826	254.25
614.034	262.25
614.242	256.25
614.449	290.25
614.657	262.25
614.865	251.25
615.072	240.25
615.28	258.25
615.488	269.25
615.695	264.25
615.903	258.25
616.111	247.25
616.318	276.25
616.526	268.25
616.733	247.25
616.941	249.25
617.148	248.25
617.356	267.25
617.563	264.25
617.771	267.25
617.978	258.25
618.185	271.25
618.393	261.25
618.6	264.25
618.807	248.25
619.015	262.25
619.222	268.25
619.429	248.25
619.637	258.25
619.844	260.25
620.051	250.25
620.258	244.25
620.466	250.25
620.673	238.25
620.88	237.25
621.087	244.25
621.294	242.25
621.501	246.25
621.708	243.25
621.915	261.25
622.122	243.25
622.329	238.25
622.536	252.25
622.743	252.25
622.95	260.25
623.157	235.25
623.364	234.25
623.571	252.25
623.778	235.25
623.985	236.25
624.192	236.25
624.399	248.25
624.606	250.25
624.812	243.25
625.019	219.25
625.226	242.25
625.433	244.25
625.639	224.25
625.846	220.25
626.053	236.25
626.259	229.25
626.466	239.25
626.673	230.25
626.879	227.25
627.086	236.25
627.293	219.25
627.499	232.25
627.706	227.25
627.912	229.25
628.119	224.25
628.325	221.25
628.532	223.25
628.738	220.25
628.945	230.25
629.151	220.25
629.357	212.25
629.564	214.25
629.77	216.25
629.976	200.25
630.183	234.25
630.389	210.25
630.595	229.25
630.802	209.25
631.008	216.25
631.214	222.25
631.42	204.25
631.627	233.25
631.833	203.25
632.039	231.25
632.245	202.25
632.451	211.25
632.657	206.25
632.863	192.25
633.069	208.25
633.275	193.25
633.481	205.25
633.688	201.25
633.893	213.25
634.099	204.25
634.305	199.25
634.511	223.25
634.717	219.25
634.923	193.25
635.129	200.25
635.335	194.25
635.541	188.25
635.747	204.25
635.952	196.25
636.158	188.25
636.364	216.25
636.57	198.25
636.775	216.25
636.981	206.25
637.187	207.25
637.392	204.25
637.598	188.25
637.804	208.25
638.009	198.25
638.215	202.25
638.421	192.25
638.626	191.25
638.832	176.25
639.037	197.25
639.243	180.25
639.448	176.25
639.654	184.25
639.859	191.25
640.065	195.25
640.27	199.25
640.475	191.25
640.681	172.25
640.886	175.25
641.091	196.25
641.297	208.25
641.502	195.25
641.707	188.25
641.913	190.25
642.118	192.25
642.323	182.25
642.528	188.25
642.733	169.25
642.939	192.25
643.144	168.25
643.349	177.25
643.554	192.25
643.759	195.25
643.964	191.25
644.169	194.25
644.374	183.25
644.579	184.25
644.784	181.25
644.989	193.25
645.194	203.25
645.399	176.25
645.604	183.25
645.809	153.25
646.014	197.25
646.219	178.25
646.423	180.25
646.628	186.25
646.833	191.25
647.038	184.25
647.243	188.25
647.447	180.25
647.652	163.25
647.857	163.25
648.062	191.25
648.266	172.25
648.471	190.25
648.676	210.25
648.88	199.25
649.085	191.25
649.289	200.25
649.494	190.25
649.698	192.25
649.903	199.25
650.107	178.25
650.312	175.25
650.516	170.25
650.721	168.25
650.925	166.25
651.13	155.25
651.334	169.25
651.539	159.25
651.743	144.25
651.947	173.25
652.152	167.25
652.356	151.25
652.56	167.25
652.764	150.25
652.969	154.25
653.173	152.25
653.377	154.25
653.581	148.25
653.785	138.25
653.99	139.25
654.194	138.25
654.398	138.25
654.602	147.25
654.806	135.25
655.01	160.25
655.214	152.25
655.418	144.25
655.622	128.25
655.826	150.25
656.03	132.25
656.234	138.25
656.438	145.25
656.642	143.25
656.846	142.25
657.049	134.25
657.253	116.25
657.457	134.25
657.661	124.25
657.865	119.25
658.068	114.25
658.272	102.25
658.476	114.25
658.68	106.25
658.883	117.25
659.087	105.25
659.291	118.25
659.494	100.25
659.698	109.25
659.901	112.25
660.105	110.25
660.309	95.25
660.512	96.25
660.716	85.25
660.919	92.25
661.123	95.25
661.326	88.25
661.53	88.25
661.733	99.25
661.936	92.25
662.14	76.25
662.343	87.25
662.546	85.25
662.75	82.25
662.953	83.25
663.156	83.25
663.36	83.25
663.563	78.25
663.766	90.25
663.969	94.25
664.173	94.25
664.376	80.25
664.579	79.25
664.782	72.25
664.985	76.25
665.188	87.25
665.391	78.25
665.594	75.25
665.797	86.25
666	85.25
666.203	79.25
666.406	90.25
666.609	69.25
666.812	85.25
667.015	88.25
667.218	99.25
667.421	79.25
667.624	79.25
667.827	83.25
668.03	92.25
668.232	79.25
668.435	91.25
668.638	93.25
668.841	85.25
669.043	74.25
669.246	72.25
669.449	80.25
669.651	87.25
669.854	80.25
670.057	87.25
670.259	91.25
670.462	70.25
670.665	86.25
670.867	95.25
671.07	66.25
671.272	81.25
671.475	85.25
671.677	90.25
671.88	84.25
672.082	93.25
672.284	82.25
672.487	87.25
672.689	90.25
672.892	89.25
