Data from Location5.07152019.Energy5.Lamp.07192019.3%Agarose_HRD10591_16-04-11-628.txt Node
Date: Fri Jul 19 16:04:11 EDT 2019
User: cochatt
Spectrometer: HR+D1059
Trigger mode: 1
Integration Time (sec): 1.000000E-1
Scans to average: 1
Electric dark correction enabled: true
Nonlinearity correction enabled: false
Boxcar width: 0
XAxis mode: Wavelengths
Number of Pixels in Spectrum: 2048
>>>>>Begin Spectral Data<<<<<
223.165	-20.69
223.4	-20.69
223.635	-20.69
223.869	-12.69
224.104	-1.69
224.338	-21.69
224.573	3.31
224.808	-5.69
225.042	1.31
225.277	-11.69
225.511	-13.69
225.746	6.31
225.98	2.31
226.215	12.31
226.449	8.31
226.683	21.31
226.918	16.31
227.152	16.31
227.387	25.31
227.621	24.31
227.856	21.31
228.09	51.31
228.324	48.31
228.559	53.31
228.793	60.31
229.027	57.31
229.262	40.31
229.496	63.31
229.73	56.31
229.964	72.31
230.199	76.31
230.433	71.31
230.667	79.31
230.901	84.31
231.136	74.31
231.37	63.31
231.604	89.31
231.838	62.31
232.072	76.31
232.306	79.31
232.541	81.31
232.775	79.31
233.009	86.31
233.243	66.31
233.477	96.31
233.711	81.31
233.945	88.31
234.179	82.31
234.413	79.31
234.647	74.31
234.881	80.31
235.115	62.31
235.349	74.31
235.583	79.31
235.817	75.31
236.051	88.31
236.285	70.31
236.519	74.31
236.753	87.31
236.987	72.31
237.221	73.31
237.455	75.31
237.689	81.31
237.922	77.31
238.156	72.31
238.39	72.31
238.624	81.31
238.858	82.31
239.091	69.31
239.325	76.31
239.559	85.31
239.793	86.31
240.027	65.31
240.26	82.31
240.494	73.31
240.728	85.31
240.961	85.31
241.195	81.31
241.429	74.31
241.662	57.31
241.896	67.31
242.13	79.31
242.363	83.31
242.597	69.31
242.83	67.31
243.064	64.31
243.298	92.31
243.531	79.31
243.765	86.31
243.998	64.31
244.232	80.31
244.465	81.31
244.699	65.31
244.932	79.31
245.166	81.31
245.399	66.31
245.633	96.31
245.866	81.31
246.099	85.31
246.333	75.31
246.566	65.31
246.8	72.31
247.033	84.31
247.266	78.31
247.5	90.31
247.733	87.31
247.966	75.31
248.2	86.31
248.433	99.31
248.666	77.31
248.899	78.31
249.133	88.31
249.366	81.31
249.599	86.31
249.832	78.31
250.066	84.31
250.299	77.31
250.532	79.31
250.765	64.31
250.998	80.31
251.231	76.31
251.465	81.31
251.698	81.31
251.931	85.31
252.164	75.31
252.397	89.31
252.63	72.31
252.863	77.31
253.096	80.31
253.329	66.31
253.562	76.31
253.795	99.31
254.028	70.31
254.261	81.31
254.494	82.31
254.727	74.31
254.96	81.31
255.193	87.31
255.426	88.31
255.659	68.31
255.892	86.31
256.124	73.31
256.357	79.31
256.59	84.31
256.823	89.31
257.056	92.31
257.289	81.31
257.521	88.31
257.754	85.31
257.987	90.31
258.22	72.31
258.452	82.31
258.685	81.31
258.918	82.31
259.151	82.31
259.383	81.31
259.616	83.31
259.849	70.31
260.081	85.31
260.314	72.31
260.547	67.31
260.779	81.31
261.012	85.31
261.244	82.31
261.477	89.31
261.71	82.31
261.942	72.31
262.175	74.31
262.407	97.31
262.64	86.31
262.872	78.31
263.105	90.31
263.337	80.31
263.57	76.31
263.802	88.31
264.035	86.31
264.267	82.31
264.499	91.31
264.732	77.31
264.964	82.31
265.197	64.31
265.429	78.31
265.661	91.31
265.894	88.31
266.126	100.31
266.358	101.31
266.591	66.31
266.823	71.31
267.055	89.31
267.287	82.31
267.52	87.31
267.752	98.31
267.984	81.31
268.216	70.31
268.448	84.31
268.681	81.31
268.913	77.31
269.145	82.31
269.377	69.31
269.609	79.31
269.841	92.31
270.073	88.31
270.306	84.31
270.538	77.31
270.77	80.31
271.002	90.31
271.234	74.31
271.466	83.31
271.698	74.31
271.93	75.31
272.162	84.31
272.394	81.31
272.626	87.31
272.858	82.31
273.09	74.31
273.322	82.31
273.553	91.31
273.785	73.31
274.017	85.31
274.249	82.31
274.481	90.31
274.713	80.31
274.945	93.31
275.176	83.31
275.408	80.31
275.64	87.31
275.872	82.31
276.104	93.31
276.335	91.31
276.567	79.31
276.799	75.31
277.031	89.31
277.262	87.31
277.494	88.31
277.726	79.31
277.957	81.31
278.189	81.31
278.421	88.31
278.652	96.31
278.884	81.31
279.115	80.31
279.347	81.31
279.579	85.31
279.81	96.31
280.042	88.31
280.273	99.31
280.505	102.31
280.736	76.31
280.968	94.31
281.199	77.31
281.431	94.31
281.662	105.31
281.894	81.31
282.125	83.31
282.356	100.31
282.588	92.31
282.819	86.31
283.051	94.31
283.282	88.31
283.513	100.31
283.745	87.31
283.976	92.31
284.207	86.31
284.439	94.31
284.67	92.31
284.901	92.31
285.132	80.31
285.364	71.31
285.595	83.31
285.826	92.31
286.057	84.31
286.288	85.31
286.52	92.31
286.751	99.31
286.982	92.31
287.213	89.31
287.444	81.31
287.675	80.31
287.906	94.31
288.138	87.31
288.369	88.31
288.6	84.31
288.831	91.31
289.062	90.31
289.293	91.31
289.524	78.31
289.755	97.31
289.986	78.31
290.217	82.31
290.448	93.31
290.679	87.31
290.91	85.31
291.141	84.31
291.371	88.31
291.602	85.31
291.833	103.31
292.064	78.31
292.295	86.31
292.526	100.31
292.757	77.31
292.987	70.31
293.218	94.31
293.449	79.31
293.68	97.31
293.91	112.31
294.141	92.31
294.372	96.31
294.603	91.31
294.833	87.31
295.064	75.31
295.295	85.31
295.525	97.31
295.756	85.31
295.987	87.31
296.217	87.31
296.448	92.31
296.679	81.31
296.909	101.31
297.14	77.31
297.37	91.31
297.601	97.31
297.831	94.31
298.062	92.31
298.292	105.31
298.523	100.31
298.753	93.31
298.984	82.31
299.214	90.31
299.445	102.31
299.675	87.31
299.905	93.31
300.136	95.31
300.366	89.31
300.597	83.31
300.827	86.31
301.057	81.31
301.288	72.31
301.518	89.31
301.748	91.31
301.979	82.31
302.209	90.31
302.439	96.31
302.669	98.31
302.9	96.31
303.13	90.31
303.36	107.31
303.59	96.31
303.82	81.31
304.051	73.31
304.281	84.31
304.511	89.31
304.741	100.31
304.971	92.31
305.201	99.31
305.431	84.31
305.661	73.31
305.891	85.31
306.121	109.31
306.352	82.31
306.582	88.31
306.812	92.31
307.042	92.31
307.272	93.31
307.502	91.31
307.731	81.31
307.961	87.31
308.191	97.31
308.421	84.31
308.651	100.31
308.881	87.31
309.111	102.31
309.341	96.31
309.571	80.31
309.8	91.31
310.03	92.31
310.26	85.31
310.49	95.31
310.72	93.31
310.949	77.31
311.179	107.31
311.409	85.31
311.639	93.31
311.868	102.31
312.098	79.31
312.328	74.31
312.557	88.31
312.787	102.31
313.017	96.31
313.246	84.31
313.476	89.31
313.706	92.31
313.935	76.31
314.165	94.31
314.394	84.31
314.624	77.31
314.853	91.31
315.083	91.31
315.312	89.31
315.542	100.31
315.771	80.31
316.001	82.31
316.23	90.31
316.46	90.31
316.689	93.31
316.919	84.31
317.148	84.31
317.377	80.31
317.607	91.31
317.836	93.31
318.065	87.31
318.295	92.31
318.524	108.31
318.753	102.31
318.983	93.31
319.212	97.31
319.441	85.31
319.67	102.31
319.9	108.31
320.129	84.31
320.358	82.31
320.587	83.31
320.816	93.31
321.046	89.31
321.275	102.31
321.504	96.31
321.733	84.31
321.962	97.31
322.191	96.31
322.42	92.31
322.649	85.31
322.878	91.31
323.108	97.31
323.337	88.31
323.566	90.31
323.795	96.31
324.024	90.31
324.253	89.31
324.482	93.31
324.71	93.31
324.939	99.31
325.168	107.31
325.397	90.31
325.626	98.31
325.855	95.31
326.084	113.31
326.313	88.31
326.542	89.31
326.77	92.31
326.999	83.31
327.228	106.31
327.457	78.31
327.686	100.31
327.914	81.31
328.143	87.31
328.372	81.31
328.6	90.31
328.829	95.31
329.058	96.31
329.287	94.31
329.515	87.31
329.744	89.31
329.972	89.31
330.201	98.31
330.43	94.31
330.658	107.31
330.887	85.31
331.115	105.31
331.344	100.31
331.572	102.31
331.801	93.31
332.03	95.31
332.258	89.31
332.486	90.31
332.715	95.31
332.943	87.31
333.172	98.31
333.4	97.31
333.629	101.31
333.857	92.31
334.085	95.31
334.314	103.31
334.542	84.31
334.771	91.31
334.999	80.31
335.227	97.31
335.455	82.31
335.684	88.31
335.912	98.31
336.14	82.31
336.369	98.31
336.597	99.31
336.825	95.31
337.053	105.31
337.281	102.31
337.51	87.31
337.738	109.31
337.966	93.31
338.194	106.31
338.422	88.31
338.65	94.31
338.878	88.31
339.106	93.31
339.334	96.31
339.562	83.31
339.79	86.31
340.018	86.31
340.246	74.31
340.474	102.31
340.702	83.31
340.93	85.31
341.158	89.31
341.386	87.31
341.614	91.31
341.842	97.31
342.07	79.31
342.298	85.31
342.526	92.31
342.754	91.31
342.981	84.31
343.209	85.31
343.437	98.31
343.665	90.31
343.893	98.31
344.12	95.31
344.348	85.31
344.576	86.31
344.804	87.31
345.031	105.31
345.259	90.31
345.487	84.31
345.714	85.31
345.942	91.31
346.17	85.31
346.397	93.31
346.625	96.31
346.853	100.31
347.08	91.31
347.308	92.31
347.535	81.31
347.763	85.31
347.99	82.31
348.218	89.31
348.445	91.31
348.673	94.31
348.9	82.31
349.128	87.31
349.355	76.31
349.583	82.31
349.81	81.31
350.037	81.31
350.265	100.31
350.492	102.31
350.72	87.31
350.947	82.31
351.174	78.31
351.402	72.31
351.629	88.31
351.856	88.31
352.083	98.31
352.311	104.31
352.538	86.31
352.765	95.31
352.992	103.31
353.22	82.31
353.447	88.31
353.674	98.31
353.901	92.31
354.128	95.31
354.355	101.31
354.583	94.31
354.81	111.31
355.037	77.31
355.264	98.31
355.491	78.31
355.718	86.31
355.945	103.31
356.172	84.31
356.399	102.31
356.626	97.31
356.853	87.31
357.08	97.31
357.307	95.31
357.534	82.31
357.761	93.31
357.988	84.31
358.215	96.31
358.441	94.31
358.668	85.31
358.895	87.31
359.122	82.31
359.349	88.31
359.576	103.31
359.802	86.31
360.029	71.31
360.256	87.31
360.483	88.31
360.709	85.31
360.936	107.31
361.163	92.31
361.39	89.31
361.616	80.31
361.843	78.31
362.07	79.31
362.296	86.31
362.523	99.31
362.749	92.31
362.976	86.31
363.203	98.31
363.429	88.31
363.656	89.31
363.882	88.31
364.109	102.31
364.335	100.31
364.562	80.31
364.788	77.31
365.015	107.31
365.241	97.31
365.468	98.31
365.694	75.31
365.92	84.31
366.147	80.31
366.373	97.31
366.599	84.31
366.826	80.31
367.052	104.31
367.278	95.31
367.505	95.31
367.731	80.31
367.957	98.31
368.184	89.31
368.41	98.31
368.636	92.31
368.862	100.31
369.089	93.31
369.315	84.31
369.541	93.31
369.767	81.31
369.993	94.31
370.219	88.31
370.445	89.31
370.672	100.31
370.898	89.31
371.124	80.31
371.35	84.31
371.576	96.31
371.802	93.31
372.028	80.31
372.254	84.31
372.48	99.31
372.706	98.31
372.932	102.31
373.158	97.31
373.384	94.31
373.61	97.31
373.835	106.31
374.061	80.31
374.287	90.31
374.513	89.31
374.739	94.31
374.965	102.31
375.191	102.31
375.416	100.31
375.642	97.31
375.868	84.31
376.094	90.31
376.319	90.31
376.545	89.31
376.771	89.31
376.997	100.31
377.222	96.31
377.448	87.31
377.674	83.31
377.899	85.31
378.125	101.31
378.35	99.31
378.576	82.31
378.802	89.31
379.027	101.31
379.253	110.31
379.478	94.31
379.704	84.31
379.929	93.31
380.155	85.31
380.38	98.31
380.606	102.31
380.831	95.31
381.057	99.31
381.282	100.31
381.507	82.31
381.733	89.31
381.958	80.31
382.184	81.31
382.409	87.31
382.634	83.31
382.86	84.31
383.085	95.31
383.31	97.31
383.535	96.31
383.761	93.31
383.986	112.31
384.211	103.31
384.436	84.31
384.662	98.31
384.887	82.31
385.112	92.31
385.337	84.31
385.562	72.31
385.787	105.31
386.013	95.31
386.238	80.31
386.463	89.31
386.688	92.31
386.913	90.31
387.138	96.31
387.363	88.31
387.588	97.31
387.813	97.31
388.038	97.31
388.263	108.31
388.488	109.31
388.713	84.31
388.938	75.31
389.163	90.31
389.387	105.31
389.612	93.31
389.837	94.31
390.062	82.31
390.287	94.31
390.512	96.31
390.736	95.31
390.961	89.31
391.186	94.31
391.411	90.31
391.636	90.31
391.86	96.31
392.085	100.31
392.31	97.31
392.534	98.31
392.759	89.31
392.984	94.31
393.208	97.31
393.433	89.31
393.658	88.31
393.882	94.31
394.107	88.31
394.331	102.31
394.556	99.31
394.78	80.31
395.005	82.31
395.229	96.31
395.454	106.31
395.678	89.31
395.903	100.31
396.127	99.31
396.352	101.31
396.576	88.31
396.801	86.31
397.025	89.31
397.249	99.31
397.474	102.31
397.698	93.31
397.922	91.31
398.147	96.31
398.371	98.31
398.595	86.31
398.82	81.31
399.044	111.31
399.268	106.31
399.492	99.31
399.717	118.31
399.941	114.31
400.165	104.31
400.389	100.31
400.613	99.31
400.837	87.31
401.062	89.31
401.286	101.31
401.51	90.31
401.734	102.31
401.958	81.31
402.182	89.31
402.406	89.31
402.63	94.31
402.854	96.31
403.078	101.31
403.302	98.31
403.526	108.31
403.75	103.31
403.974	104.31
404.198	84.31
404.422	89.31
404.645	104.31
404.869	100.31
405.093	83.31
405.317	104.31
405.541	93.31
405.765	101.31
405.988	109.31
406.212	109.31
406.436	85.31
406.66	91.31
406.883	89.31
407.107	92.31
407.331	96.31
407.555	108.31
407.778	100.31
408.002	104.31
408.226	99.31
408.449	103.31
408.673	94.31
408.896	98.31
409.12	98.31
409.344	96.31
409.567	96.31
409.791	94.31
410.014	100.31
410.238	103.31
410.461	94.31
410.685	98.31
410.908	95.31
411.132	113.31
411.355	93.31
411.578	97.31
411.802	97.31
412.025	105.31
412.249	103.31
412.472	102.31
412.695	100.31
412.919	93.31
413.142	90.31
413.365	78.31
413.589	95.31
413.812	101.31
414.035	91.31
414.258	103.31
414.482	91.31
414.705	96.31
414.928	104.31
415.151	93.31
415.374	102.31
415.597	80.31
415.821	92.31
416.044	92.31
416.267	93.31
416.49	105.31
416.713	96.31
416.936	97.31
417.159	96.31
417.382	87.31
417.605	93.31
417.828	98.31
418.051	99.31
418.274	98.31
418.497	97.31
418.72	122.31
418.943	96.31
419.166	101.31
419.389	97.31
419.611	87.31
419.834	114.31
420.057	78.31
420.28	87.31
420.503	98.31
420.726	87.31
420.948	103.31
421.171	86.31
421.394	90.31
421.617	84.31
421.839	94.31
422.062	103.31
422.285	74.31
422.507	97.31
422.73	98.31
422.953	97.31
423.175	93.31
423.398	88.31
423.621	100.31
423.843	98.31
424.066	95.31
424.288	94.31
424.511	106.31
424.733	102.31
424.956	101.31
425.178	104.31
425.401	95.31
425.623	94.31
425.846	88.31
426.068	102.31
426.291	103.31
426.513	112.31
426.735	97.31
426.958	99.31
427.18	89.31
427.402	89.31
427.625	101.31
427.847	87.31
428.069	95.31
428.292	106.31
428.514	91.31
428.736	108.31
428.958	105.31
429.181	100.31
429.403	87.31
429.625	87.31
429.847	80.31
430.069	78.31
430.292	106.31
430.514	81.31
430.736	85.31
430.958	96.31
431.18	95.31
431.402	83.31
431.624	79.31
431.846	92.31
432.068	77.31
432.29	84.31
432.512	101.31
432.734	92.31
432.956	102.31
433.178	103.31
433.4	101.31
433.622	109.31
433.844	86.31
434.066	105.31
434.287	106.31
434.509	82.31
434.731	95.31
434.953	90.31
435.175	97.31
435.397	86.31
435.618	109.31
435.84	93.31
436.062	93.31
436.284	90.31
436.505	86.31
436.727	90.31
436.949	93.31
437.17	95.31
437.392	85.31
437.614	87.31
437.835	90.31
438.057	97.31
438.278	80.31
438.5	92.31
438.721	92.31
438.943	93.31
439.165	91.31
439.386	93.31
439.608	83.31
439.829	86.31
440.05	80.31
440.272	96.31
440.493	101.31
440.715	85.31
440.936	97.31
441.158	106.31
441.379	99.31
441.6	101.31
441.822	90.31
442.043	93.31
442.264	90.31
442.486	103.31
442.707	93.31
442.928	108.31
443.149	97.31
443.371	91.31
443.592	99.31
443.813	106.31
444.034	100.31
444.255	89.31
444.476	96.31
444.698	85.31
444.919	112.31
445.14	212.31
445.361	145.31
445.582	78.31
445.803	97.31
446.024	94.31
446.245	92.31
446.466	98.31
446.687	91.31
446.908	113.31
447.129	83.31
447.35	95.31
447.571	91.31
447.792	84.31
448.013	92.31
448.234	100.31
448.455	87.31
448.675	97.31
448.896	101.31
449.117	98.31
449.338	91.31
449.559	71.31
449.779	86.31
450	101.31
450.221	83.31
450.442	85.31
450.662	90.31
450.883	87.31
451.104	91.31
451.324	92.31
451.545	98.31
451.766	99.31
451.986	77.31
452.207	80.31
452.428	92.31
452.648	91.31
452.869	81.31
453.089	82.31
453.31	88.31
453.53	89.31
453.751	94.31
453.971	98.31
454.192	90.31
454.412	97.31
454.633	109.31
454.853	88.31
455.073	109.31
455.294	101.31
455.514	84.31
455.734	99.31
455.955	81.31
456.175	77.31
456.395	89.31
456.616	92.31
456.836	92.31
457.056	100.31
457.276	96.31
457.497	102.31
457.717	89.31
457.937	81.31
458.157	95.31
458.377	72.31
458.598	98.31
458.818	85.31
459.038	92.31
459.258	92.31
459.478	102.31
459.698	93.31
459.918	94.31
460.138	101.31
460.358	95.31
460.578	120.31
460.798	109.31
461.018	116.31
461.238	100.31
461.458	97.31
461.678	104.31
461.898	80.31
462.118	90.31
462.338	95.31
462.558	109.31
462.777	98.31
462.997	101.31
463.217	113.31
463.437	112.31
463.657	93.31
463.876	108.31
464.096	100.31
464.316	112.31
464.536	96.31
464.755	97.31
464.975	97.31
465.195	105.31
465.414	93.31
465.634	97.31
465.854	81.31
466.073	97.31
466.293	93.31
466.512	88.31
466.732	89.31
466.951	100.31
467.171	94.31
467.391	98.31
467.61	86.31
467.829	91.31
468.049	93.31
468.268	74.31
468.488	91.31
468.707	99.31
468.927	104.31
469.146	91.31
469.365	90.31
469.585	89.31
469.804	92.31
470.023	85.31
470.243	100.31
470.462	92.31
470.681	105.31
470.901	108.31
471.12	89.31
471.339	98.31
471.558	96.31
471.777	95.31
471.997	96.31
472.216	100.31
472.435	112.31
472.654	90.31
472.873	87.31
473.092	95.31
473.311	96.31
473.53	106.31
473.749	96.31
473.968	104.31
474.187	94.31
474.406	73.31
474.625	88.31
474.844	89.31
475.063	84.31
475.282	105.31
475.501	99.31
475.72	98.31
475.939	101.31
476.158	81.31
476.377	81.31
476.596	113.31
476.814	88.31
477.033	84.31
477.252	92.31
477.471	108.31
477.69	104.31
477.908	106.31
478.127	98.31
478.346	93.31
478.564	89.31
478.783	99.31
479.002	103.31
479.22	104.31
479.439	99.31
479.658	114.31
479.876	103.31
480.095	87.31
480.313	111.31
480.532	104.31
480.751	107.31
480.969	96.31
481.188	102.31
481.406	101.31
481.624	104.31
481.843	109.31
482.061	92.31
482.28	95.31
482.498	108.31
482.717	112.31
482.935	119.31
483.153	93.31
483.372	84.31
483.59	96.31
483.808	99.31
484.027	102.31
484.245	101.31
484.463	103.31
484.681	104.31
484.9	101.31
485.118	104.31
485.336	98.31
485.554	101.31
485.772	112.31
485.99	104.31
486.209	105.31
486.427	104.31
486.645	104.31
486.863	111.31
487.081	109.31
487.299	101.31
487.517	100.31
487.735	97.31
487.953	109.31
488.171	104.31
488.389	117.31
488.607	106.31
488.825	108.31
489.043	97.31
489.261	95.31
489.479	90.31
489.696	102.31
489.914	103.31
490.132	110.31
490.35	106.31
490.568	106.31
490.786	107.31
491.003	105.31
491.221	108.31
491.439	110.31
491.657	108.31
491.874	121.31
492.092	110.31
492.31	114.31
492.527	126.31
492.745	113.31
492.963	119.31
493.18	101.31
493.398	109.31
493.615	120.31
493.833	111.31
494.05	112.31
494.268	106.31
494.485	105.31
494.703	112.31
494.92	106.31
495.138	118.31
495.355	116.31
495.573	122.31
495.79	109.31
496.008	110.31
496.225	117.31
496.442	112.31
496.66	96.31
496.877	97.31
497.094	114.31
497.312	119.31
497.529	115.31
497.746	122.31
497.963	119.31
498.181	110.31
498.398	112.31
498.615	125.31
498.832	110.31
499.049	118.31
499.267	113.31
499.484	117.31
499.701	141.31
499.918	157.31
500.135	144.31
500.352	155.31
500.569	166.31
500.786	161.31
501.003	156.31
501.22	153.31
501.437	136.31
501.654	122.31
501.871	128.31
502.088	129.31
502.305	130.31
502.522	121.31
502.739	117.31
502.956	121.31
503.172	108.31
503.389	104.31
503.606	105.31
503.823	102.31
504.04	114.31
504.256	106.31
504.473	105.31
504.69	110.31
504.907	116.31
505.123	116.31
505.34	113.31
505.557	99.31
505.773	106.31
505.99	118.31
506.207	108.31
506.423	86.31
506.64	111.31
506.856	98.31
507.073	92.31
507.289	105.31
507.506	93.31
507.722	101.31
507.939	99.31
508.155	103.31
508.372	85.31
508.588	97.31
508.805	101.31
509.021	104.31
509.238	95.31
509.454	94.31
509.67	92.31
509.887	96.31
510.103	102.31
510.319	106.31
510.536	93.31
510.752	94.31
510.968	100.31
511.184	103.31
511.401	93.31
511.617	101.31
511.833	95.31
512.049	99.31
512.265	96.31
512.481	99.31
512.698	97.31
512.914	89.31
513.13	91.31
513.346	95.31
513.562	103.31
513.778	101.31
513.994	113.31
514.21	95.31
514.426	105.31
514.642	103.31
514.858	100.31
515.074	104.31
515.29	102.31
515.506	77.31
515.721	92.31
515.937	97.31
516.153	110.31
516.369	101.31
516.585	108.31
516.801	94.31
517.016	97.31
517.232	92.31
517.448	121.31
517.664	113.31
517.879	106.31
518.095	102.31
518.311	109.31
518.527	110.31
518.742	106.31
518.958	95.31
519.173	98.31
519.389	103.31
519.605	94.31
519.82	98.31
520.036	112.31
520.251	102.31
520.467	96.31
520.682	97.31
520.898	99.31
521.113	96.31
521.329	98.31
521.544	109.31
521.76	84.31
521.975	96.31
522.19	91.31
522.406	81.31
522.621	106.31
522.836	95.31
523.052	91.31
523.267	93.31
523.482	86.31
523.698	92.31
523.913	106.31
524.128	101.31
524.343	102.31
524.559	105.31
524.774	99.31
524.989	98.31
525.204	109.31
525.419	84.31
525.634	99.31
525.849	99.31
526.064	101.31
526.28	103.31
526.495	105.31
526.71	105.31
526.925	92.31
527.14	94.31
527.355	98.31
527.57	109.31
527.785	106.31
527.999	98.31
528.214	103.31
528.429	108.31
528.644	120.31
528.859	102.31
529.074	109.31
529.289	97.31
529.503	114.31
529.718	115.31
529.933	110.31
530.148	90.31
530.363	104.31
530.577	81.31
530.792	110.31
531.007	104.31
531.221	99.31
531.436	99.31
531.651	93.31
531.865	93.31
532.08	95.31
532.295	95.31
532.509	96.31
532.724	98.31
532.938	103.31
533.153	94.31
533.367	86.31
533.582	83.31
533.796	105.31
534.011	89.31
534.225	113.31
534.44	86.31
534.654	110.31
534.868	99.31
535.083	84.31
535.297	92.31
535.511	95.31
535.726	104.31
535.94	99.31
536.154	117.31
536.369	82.31
536.583	93.31
536.797	97.31
537.011	103.31
537.225	96.31
537.44	98.31
537.654	96.31
537.868	104.31
538.082	101.31
538.296	88.31
538.51	102.31
538.724	108.31
538.938	86.31
539.153	94.31
539.367	101.31
539.581	109.31
539.795	114.31
540.009	99.31
540.222	105.31
540.436	90.31
540.65	85.31
540.864	96.31
541.078	111.31
541.292	98.31
541.506	98.31
541.72	110.31
541.934	102.31
542.147	122.31
542.361	119.31
542.575	100.31
542.789	112.31
543.002	99.31
543.216	100.31
543.43	107.31
543.644	99.31
543.857	95.31
544.071	99.31
544.285	104.31
544.498	100.31
544.712	101.31
544.925	95.31
545.139	93.31
545.352	109.31
545.566	94.31
545.779	99.31
545.993	116.31
546.206	102.31
546.42	88.31
546.633	105.31
546.847	106.31
547.06	102.31
547.274	103.31
547.487	84.31
547.7	90.31
547.914	113.31
548.127	107.31
548.34	98.31
548.554	114.31
548.767	95.31
548.98	101.31
549.193	99.31
549.407	112.31
549.62	116.31
549.833	106.31
550.046	103.31
550.259	111.31
550.473	97.31
550.686	98.31
550.899	116.31
551.112	97.31
551.325	96.31
551.538	96.31
551.751	92.31
551.964	101.31
552.177	114.31
552.39	108.31
552.603	104.31
552.816	96.31
553.029	105.31
553.242	102.31
553.455	98.31
553.667	101.31
553.88	115.31
554.093	104.31
554.306	107.31
554.519	112.31
554.732	94.31
554.944	91.31
555.157	90.31
555.37	103.31
555.583	87.31
555.795	101.31
556.008	99.31
556.221	105.31
556.433	96.31
556.646	102.31
556.859	104.31
557.071	84.31
557.284	106.31
557.496	103.31
557.709	92.31
557.921	89.31
558.134	102.31
558.346	108.31
558.559	99.31
558.771	89.31
558.984	95.31
559.196	100.31
559.409	98.31
559.621	103.31
559.833	97.31
560.046	119.31
560.258	110.31
560.47	96.31
560.683	100.31
560.895	101.31
561.107	96.31
561.32	99.31
561.532	90.31
561.744	112.31
561.956	105.31
562.168	86.31
562.381	86.31
562.593	104.31
562.805	103.31
563.017	95.31
563.229	93.31
563.441	104.31
563.653	78.31
563.865	104.31
564.077	88.31
564.289	93.31
564.501	94.31
564.713	109.31
564.925	107.31
565.137	94.31
565.349	104.31
565.561	106.31
565.773	104.31
565.985	96.31
566.197	104.31
566.408	98.31
566.62	110.31
566.832	102.31
567.044	124.31
567.255	110.31
567.467	108.31
567.679	101.31
567.891	109.31
568.102	118.31
568.314	109.31
568.526	93.31
568.737	106.31
568.949	98.31
569.161	103.31
569.372	85.31
569.584	100.31
569.795	92.31
570.007	92.31
570.218	87.31
570.43	104.31
570.641	89.31
570.853	97.31
571.064	104.31
571.276	91.31
571.487	89.31
571.698	93.31
571.91	94.31
572.121	103.31
572.333	80.31
572.544	95.31
572.755	95.31
572.966	105.31
573.178	87.31
573.389	92.31
573.6	103.31
573.811	92.31
574.023	102.31
574.234	93.31
574.445	81.31
574.656	103.31
574.867	97.31
575.078	82.31
575.289	92.31
575.501	102.31
575.712	100.31
575.923	87.31
576.134	92.31
576.345	82.31
576.556	90.31
576.767	78.31
576.978	88.31
577.188	85.31
577.399	91.31
577.61	91.31
577.821	85.31
578.032	88.31
578.243	99.31
578.454	90.31
578.665	82.31
578.875	88.31
579.086	97.31
579.297	90.31
579.508	92.31
579.718	84.31
579.929	96.31
580.14	80.31
580.35	80.31
580.561	88.31
580.772	94.31
580.982	84.31
581.193	89.31
581.403	88.31
581.614	96.31
581.825	86.31
582.035	84.31
582.246	97.31
582.456	88.31
582.667	90.31
582.877	100.31
583.087	91.31
583.298	100.31
583.508	88.31
583.719	98.31
583.929	94.31
584.139	85.31
584.35	91.31
584.56	99.31
584.77	85.31
584.981	85.31
585.191	87.31
585.401	93.31
585.611	86.31
585.821	87.31
586.032	92.31
586.242	81.31
586.452	88.31
586.662	97.31
586.872	79.31
587.082	98.31
587.292	93.31
587.502	86.31
587.713	95.31
587.923	88.31
588.133	100.31
588.343	102.31
588.553	78.31
588.762	88.31
588.972	110.31
589.182	96.31
589.392	101.31
589.602	95.31
589.812	82.31
590.022	96.31
590.232	91.31
590.441	72.31
590.651	82.31
590.861	95.31
591.071	100.31
591.281	96.31
591.49	84.31
591.7	96.31
591.91	83.31
592.119	97.31
592.329	103.31
592.539	97.31
592.748	81.31
592.958	93.31
593.167	75.31
593.377	94.31
593.587	102.31
593.796	85.31
594.006	99.31
594.215	87.31
594.424	93.31
594.634	105.31
594.843	97.31
595.053	98.31
595.262	92.31
595.472	92.31
595.681	86.31
595.89	83.31
596.1	83.31
596.309	89.31
596.518	95.31
596.727	97.31
596.937	91.31
597.146	94.31
597.355	84.31
597.564	90.31
597.774	83.31
597.983	88.31
598.192	92.31
598.401	83.31
598.61	101.31
598.819	86.31
599.028	80.31
599.237	94.31
599.446	91.31
599.655	78.31
599.864	86.31
600.073	102.31
600.282	88.31
600.491	102.31
600.7	98.31
600.909	91.31
601.118	82.31
601.327	91.31
601.536	90.31
601.745	84.31
601.953	87.31
602.162	89.31
602.371	79.31
602.58	97.31
602.789	94.31
602.997	90.31
603.206	92.31
603.415	88.31
603.623	82.31
603.832	75.31
604.041	97.31
604.249	94.31
604.458	74.31
604.666	82.31
604.875	83.31
605.084	88.31
605.292	98.31
605.501	88.31
605.709	84.31
605.918	79.31
606.126	80.31
606.334	89.31
606.543	84.31
606.751	102.31
606.96	79.31
607.168	82.31
607.376	81.31
607.585	84.31
607.793	89.31
608.001	82.31
608.21	85.31
608.418	92.31
608.626	102.31
608.834	97.31
609.043	88.31
609.251	93.31
609.459	100.31
609.667	86.31
609.875	93.31
610.083	78.31
610.291	104.31
610.499	73.31
610.707	77.31
610.916	90.31
611.124	103.31
611.332	97.31
611.54	73.31
611.748	79.31
611.955	84.31
612.163	87.31
612.371	86.31
612.579	83.31
612.787	77.31
612.995	81.31
613.203	94.31
613.411	76.31
613.618	81.31
613.826	82.31
614.034	86.31
614.242	84.31
614.449	88.31
614.657	87.31
614.865	88.31
615.072	73.31
615.28	91.31
615.488	98.31
615.695	90.31
615.903	88.31
616.111	77.31
616.318	102.31
616.526	90.31
616.733	93.31
616.941	97.31
617.148	84.31
617.356	93.31
617.563	103.31
617.771	75.31
617.978	98.31
618.185	96.31
618.393	96.31
618.6	89.31
618.807	72.31
619.015	74.31
619.222	87.31
619.429	85.31
619.637	82.31
619.844	80.31
620.051	81.31
620.258	88.31
620.466	73.31
620.673	82.31
620.88	74.31
621.087	81.31
621.294	92.31
621.501	85.31
621.708	89.31
621.915	86.31
622.122	87.31
622.329	88.31
622.536	87.31
622.743	100.31
622.95	83.31
623.157	83.31
623.364	96.31
623.571	90.31
623.778	93.31
623.985	88.31
624.192	94.31
624.399	95.31
624.606	85.31
624.812	87.31
625.019	84.31
625.226	86.31
625.433	101.31
625.639	100.31
625.846	87.31
626.053	97.31
626.259	95.31
626.466	88.31
626.673	82.31
626.879	87.31
627.086	78.31
627.293	78.31
627.499	82.31
627.706	87.31
627.912	85.31
628.119	98.31
628.325	102.31
628.532	99.31
628.738	81.31
628.945	87.31
629.151	88.31
629.357	96.31
629.564	100.31
629.77	87.31
629.976	87.31
630.183	78.31
630.389	87.31
630.595	87.31
630.802	88.31
631.008	73.31
631.214	96.31
631.42	85.31
631.627	85.31
631.833	85.31
632.039	79.31
632.245	89.31
632.451	84.31
632.657	93.31
632.863	80.31
633.069	88.31
633.275	81.31
633.481	92.31
633.688	90.31
633.893	94.31
634.099	81.31
634.305	80.31
634.511	85.31
634.717	82.31
634.923	77.31
635.129	90.31
635.335	87.31
635.541	85.31
635.747	87.31
635.952	80.31
636.158	80.31
636.364	67.31
636.57	83.31
636.775	74.31
636.981	93.31
637.187	78.31
637.392	78.31
637.598	70.31
637.804	89.31
638.009	103.31
638.215	93.31
638.421	78.31
638.626	92.31
638.832	72.31
639.037	77.31
639.243	65.31
639.448	83.31
639.654	78.31
639.859	94.31
640.065	78.31
640.27	76.31
640.475	89.31
640.681	85.31
640.886	104.31
641.091	90.31
641.297	91.31
641.502	84.31
641.707	89.31
641.913	94.31
642.118	79.31
642.323	81.31
642.528	92.31
642.733	77.31
642.939	99.31
643.144	85.31
643.349	97.31
643.554	96.31
643.759	78.31
643.964	81.31
644.169	85.31
644.374	94.31
644.579	92.31
644.784	86.31
644.989	76.31
645.194	77.31
645.399	88.31
645.604	93.31
645.809	87.31
646.014	95.31
646.219	85.31
646.423	76.31
646.628	81.31
646.833	79.31
647.038	75.31
647.243	75.31
647.447	81.31
647.652	85.31
647.857	87.31
648.062	94.31
648.266	84.31
648.471	82.31
648.676	92.31
648.88	90.31
649.085	80.31
649.289	87.31
649.494	88.31
649.698	83.31
649.903	69.31
650.107	82.31
650.312	94.31
650.516	84.31
650.721	83.31
650.925	86.31
651.13	89.31
651.334	89.31
651.539	94.31
651.743	92.31
651.947	79.31
652.152	88.31
652.356	83.31
652.56	80.31
652.764	76.31
652.969	96.31
653.173	77.31
653.377	82.31
653.581	88.31
653.785	84.31
653.99	76.31
654.194	79.31
654.398	83.31
654.602	69.31
654.806	79.31
655.01	84.31
655.214	82.31
655.418	72.31
655.622	82.31
655.826	88.31
656.03	89.31
656.234	88.31
656.438	74.31
656.642	71.31
656.846	63.31
657.049	75.31
657.253	70.31
657.457	89.31
657.661	80.31
657.865	90.31
658.068	77.31
658.272	84.31
658.476	85.31
658.68	84.31
658.883	98.31
659.087	82.31
659.291	76.31
659.494	84.31
659.698	82.31
659.901	92.31
660.105	83.31
660.309	93.31
660.512	76.31
660.716	89.31
660.919	91.31
661.123	79.31
661.326	91.31
661.53	72.31
661.733	86.31
661.936	92.31
662.14	81.31
662.343	85.31
662.546	61.31
662.75	78.31
662.953	88.31
663.156	68.31
663.36	79.31
663.563	86.31
663.766	83.31
663.969	79.31
664.173	80.31
664.376	79.31
664.579	77.31
664.782	82.31
664.985	76.31
665.188	80.31
665.391	81.31
665.594	86.31
665.797	77.31
666	77.31
666.203	88.31
666.406	85.31
666.609	82.31
666.812	66.31
667.015	79.31
667.218	78.31
667.421	80.31
667.624	90.31
667.827	80.31
668.03	86.31
668.232	93.31
668.435	73.31
668.638	78.31
668.841	64.31
669.043	74.31
669.246	74.31
669.449	78.31
669.651	85.31
669.854	73.31
670.057	89.31
670.259	72.31
670.462	72.31
670.665	51.31
670.867	72.31
671.07	74.31
671.272	74.31
671.475	85.31
671.677	86.31
671.88	89.31
672.082	90.31
672.284	87.31
672.487	70.31
672.689	77.31
672.892	77.31
