Data from Location5.07152019.Energy5.Lamp.07192019.3%Agarose_HRD10591_16-03-36-628.txt Node
Date: Fri Jul 19 16:03:36 EDT 2019
User: cochatt
Spectrometer: HR+D1059
Trigger mode: 1
Integration Time (sec): 1.000000E-1
Scans to average: 1
Electric dark correction enabled: true
Nonlinearity correction enabled: false
Boxcar width: 0
XAxis mode: Wavelengths
Number of Pixels in Spectrum: 2048
>>>>>Begin Spectral Data<<<<<
223.165	-23.5
223.4	-23.5
223.635	-23.5
223.869	-19.5
224.104	-13.5
224.338	1.5
224.573	-13.5
224.808	-13.5
225.042	-11.5
225.277	-12.5
225.511	6.5
225.746	6.5
225.98	4.5
226.215	15.5
226.449	9.5
226.683	13.5
226.918	18.5
227.152	31.5
227.387	22.5
227.621	35.5
227.856	45.5
228.09	42.5
228.324	45.5
228.559	74.5
228.793	69.5
229.027	58.5
229.262	60.5
229.496	73.5
229.73	75.5
229.964	68.5
230.199	74.5
230.433	65.5
230.667	69.5
230.901	73.5
231.136	80.5
231.37	79.5
231.604	76.5
231.838	99.5
232.072	78.5
232.306	83.5
232.541	95.5
232.775	85.5
233.009	81.5
233.243	89.5
233.477	97.5
233.711	73.5
233.945	75.5
234.179	84.5
234.413	96.5
234.647	89.5
234.881	82.5
235.115	75.5
235.349	82.5
235.583	85.5
235.817	85.5
236.051	82.5
236.285	64.5
236.519	69.5
236.753	82.5
236.987	72.5
237.221	75.5
237.455	78.5
237.689	77.5
237.922	81.5
238.156	86.5
238.39	79.5
238.624	93.5
238.858	58.5
239.091	87.5
239.325	82.5
239.559	76.5
239.793	75.5
240.027	82.5
240.26	62.5
240.494	73.5
240.728	77.5
240.961	72.5
241.195	64.5
241.429	76.5
241.662	83.5
241.896	66.5
242.13	84.5
242.363	84.5
242.597	72.5
242.83	86.5
243.064	69.5
243.298	87.5
243.531	69.5
243.765	82.5
243.998	77.5
244.232	73.5
244.465	71.5
244.699	84.5
244.932	61.5
245.166	93.5
245.399	97.5
245.633	73.5
245.866	86.5
246.099	75.5
246.333	93.5
246.566	80.5
246.8	83.5
247.033	67.5
247.266	64.5
247.5	86.5
247.733	71.5
247.966	94.5
248.2	79.5
248.433	89.5
248.666	74.5
248.899	80.5
249.133	77.5
249.366	86.5
249.599	77.5
249.832	73.5
250.066	81.5
250.299	81.5
250.532	77.5
250.765	89.5
250.998	79.5
251.231	74.5
251.465	85.5
251.698	88.5
251.931	80.5
252.164	83.5
252.397	70.5
252.63	83.5
252.863	82.5
253.096	73.5
253.329	83.5
253.562	91.5
253.795	84.5
254.028	75.5
254.261	81.5
254.494	78.5
254.727	104.5
254.96	75.5
255.193	85.5
255.426	81.5
255.659	85.5
255.892	89.5
256.124	76.5
256.357	91.5
256.59	77.5
256.823	86.5
257.056	87.5
257.289	76.5
257.521	92.5
257.754	84.5
257.987	74.5
258.22	83.5
258.452	101.5
258.685	85.5
258.918	74.5
259.151	81.5
259.383	88.5
259.616	83.5
259.849	76.5
260.081	88.5
260.314	89.5
260.547	83.5
260.779	78.5
261.012	83.5
261.244	96.5
261.477	85.5
261.71	91.5
261.942	78.5
262.175	76.5
262.407	87.5
262.64	91.5
262.872	82.5
263.105	86.5
263.337	72.5
263.57	80.5
263.802	68.5
264.035	71.5
264.267	74.5
264.499	93.5
264.732	91.5
264.964	96.5
265.197	80.5
265.429	93.5
265.661	90.5
265.894	78.5
266.126	92.5
266.358	72.5
266.591	92.5
266.823	79.5
267.055	89.5
267.287	89.5
267.52	78.5
267.752	90.5
267.984	78.5
268.216	93.5
268.448	92.5
268.681	99.5
268.913	86.5
269.145	87.5
269.377	103.5
269.609	81.5
269.841	91.5
270.073	89.5
270.306	104.5
270.538	88.5
270.77	94.5
271.002	92.5
271.234	99.5
271.466	92.5
271.698	85.5
271.93	76.5
272.162	93.5
272.394	91.5
272.626	82.5
272.858	94.5
273.09	97.5
273.322	87.5
273.553	90.5
273.785	90.5
274.017	77.5
274.249	87.5
274.481	97.5
274.713	85.5
274.945	84.5
275.176	76.5
275.408	94.5
275.64	100.5
275.872	84.5
276.104	88.5
276.335	82.5
276.567	88.5
276.799	96.5
277.031	95.5
277.262	79.5
277.494	92.5
277.726	82.5
277.957	69.5
278.189	72.5
278.421	88.5
278.652	87.5
278.884	91.5
279.115	82.5
279.347	82.5
279.579	97.5
279.81	91.5
280.042	102.5
280.273	108.5
280.505	89.5
280.736	109.5
280.968	92.5
281.199	93.5
281.431	91.5
281.662	92.5
281.894	82.5
282.125	90.5
282.356	101.5
282.588	90.5
282.819	88.5
283.051	84.5
283.282	87.5
283.513	92.5
283.745	92.5
283.976	97.5
284.207	92.5
284.439	86.5
284.67	83.5
284.901	86.5
285.132	81.5
285.364	92.5
285.595	83.5
285.826	87.5
286.057	95.5
286.288	93.5
286.52	95.5
286.751	81.5
286.982	72.5
287.213	88.5
287.444	90.5
287.675	98.5
287.906	107.5
288.138	95.5
288.369	73.5
288.6	86.5
288.831	84.5
289.062	91.5
289.293	94.5
289.524	85.5
289.755	90.5
289.986	91.5
290.217	89.5
290.448	86.5
290.679	107.5
290.91	93.5
291.141	81.5
291.371	89.5
291.602	80.5
291.833	96.5
292.064	85.5
292.295	88.5
292.526	84.5
292.757	99.5
292.987	76.5
293.218	90.5
293.449	94.5
293.68	78.5
293.91	97.5
294.141	96.5
294.372	92.5
294.603	85.5
294.833	87.5
295.064	95.5
295.295	94.5
295.525	99.5
295.756	97.5
295.987	94.5
296.217	80.5
296.448	86.5
296.679	102.5
296.909	90.5
297.14	91.5
297.37	91.5
297.601	89.5
297.831	83.5
298.062	93.5
298.292	88.5
298.523	98.5
298.753	97.5
298.984	101.5
299.214	86.5
299.445	87.5
299.675	98.5
299.905	91.5
300.136	98.5
300.366	92.5
300.597	81.5
300.827	85.5
301.057	96.5
301.288	99.5
301.518	105.5
301.748	86.5
301.979	97.5
302.209	90.5
302.439	95.5
302.669	80.5
302.9	97.5
303.13	90.5
303.36	97.5
303.59	103.5
303.82	94.5
304.051	100.5
304.281	88.5
304.511	97.5
304.741	85.5
304.971	93.5
305.201	109.5
305.431	94.5
305.661	89.5
305.891	95.5
306.121	96.5
306.352	115.5
306.582	100.5
306.812	92.5
307.042	77.5
307.272	101.5
307.502	94.5
307.731	81.5
307.961	92.5
308.191	103.5
308.421	92.5
308.651	89.5
308.881	102.5
309.111	85.5
309.341	95.5
309.571	96.5
309.8	81.5
310.03	77.5
310.26	89.5
310.49	99.5
310.72	86.5
310.949	82.5
311.179	102.5
311.409	84.5
311.639	78.5
311.868	105.5
312.098	90.5
312.328	96.5
312.557	98.5
312.787	95.5
313.017	101.5
313.246	94.5
313.476	75.5
313.706	86.5
313.935	111.5
314.165	100.5
314.394	91.5
314.624	91.5
314.853	91.5
315.083	96.5
315.312	91.5
315.542	85.5
315.771	79.5
316.001	95.5
316.23	87.5
316.46	85.5
316.689	88.5
316.919	94.5
317.148	101.5
317.377	94.5
317.607	81.5
317.836	91.5
318.065	89.5
318.295	94.5
318.524	82.5
318.753	90.5
318.983	112.5
319.212	93.5
319.441	91.5
319.67	105.5
319.9	81.5
320.129	104.5
320.358	85.5
320.587	91.5
320.816	92.5
321.046	101.5
321.275	86.5
321.504	78.5
321.733	77.5
321.962	75.5
322.191	93.5
322.42	83.5
322.649	79.5
322.878	86.5
323.108	98.5
323.337	91.5
323.566	93.5
323.795	96.5
324.024	88.5
324.253	89.5
324.482	83.5
324.71	102.5
324.939	98.5
325.168	93.5
325.397	89.5
325.626	100.5
325.855	100.5
326.084	92.5
326.313	89.5
326.542	93.5
326.77	83.5
326.999	90.5
327.228	83.5
327.457	95.5
327.686	89.5
327.914	97.5
328.143	111.5
328.372	78.5
328.6	80.5
328.829	100.5
329.058	93.5
329.287	95.5
329.515	85.5
329.744	103.5
329.972	100.5
330.201	92.5
330.43	95.5
330.658	100.5
330.887	84.5
331.115	104.5
331.344	102.5
331.572	97.5
331.801	100.5
332.03	84.5
332.258	97.5
332.486	84.5
332.715	97.5
332.943	106.5
333.172	94.5
333.4	90.5
333.629	87.5
333.857	110.5
334.085	95.5
334.314	104.5
334.542	91.5
334.771	108.5
334.999	96.5
335.227	105.5
335.455	100.5
335.684	92.5
335.912	106.5
336.14	101.5
336.369	96.5
336.597	92.5
336.825	108.5
337.053	97.5
337.281	106.5
337.51	99.5
337.738	112.5
337.966	105.5
338.194	109.5
338.422	100.5
338.65	87.5
338.878	87.5
339.106	77.5
339.334	91.5
339.562	98.5
339.79	97.5
340.018	100.5
340.246	105.5
340.474	90.5
340.702	84.5
340.93	89.5
341.158	102.5
341.386	93.5
341.614	91.5
341.842	89.5
342.07	91.5
342.298	98.5
342.526	83.5
342.754	88.5
342.981	95.5
343.209	101.5
343.437	107.5
343.665	103.5
343.893	88.5
344.12	91.5
344.348	94.5
344.576	97.5
344.804	91.5
345.031	96.5
345.259	100.5
345.487	89.5
345.714	90.5
345.942	94.5
346.17	108.5
346.397	78.5
346.625	95.5
346.853	89.5
347.08	92.5
347.308	92.5
347.535	91.5
347.763	84.5
347.99	91.5
348.218	83.5
348.445	99.5
348.673	95.5
348.9	107.5
349.128	83.5
349.355	98.5
349.583	88.5
349.81	87.5
350.037	81.5
350.265	90.5
350.492	94.5
350.72	93.5
350.947	98.5
351.174	90.5
351.402	89.5
351.629	91.5
351.856	88.5
352.083	82.5
352.311	97.5
352.538	84.5
352.765	86.5
352.992	98.5
353.22	87.5
353.447	90.5
353.674	90.5
353.901	97.5
354.128	107.5
354.355	93.5
354.583	85.5
354.81	93.5
355.037	101.5
355.264	89.5
355.491	100.5
355.718	95.5
355.945	102.5
356.172	119.5
356.399	95.5
356.626	84.5
356.853	79.5
357.08	90.5
357.307	101.5
357.534	109.5
357.761	70.5
357.988	102.5
358.215	100.5
358.441	101.5
358.668	90.5
358.895	85.5
359.122	100.5
359.349	89.5
359.576	105.5
359.802	101.5
360.029	92.5
360.256	100.5
360.483	86.5
360.709	88.5
360.936	105.5
361.163	94.5
361.39	96.5
361.616	105.5
361.843	100.5
362.07	92.5
362.296	96.5
362.523	98.5
362.749	98.5
362.976	96.5
363.203	103.5
363.429	94.5
363.656	88.5
363.882	100.5
364.109	92.5
364.335	96.5
364.562	101.5
364.788	90.5
365.015	100.5
365.241	96.5
365.468	114.5
365.694	101.5
365.92	92.5
366.147	88.5
366.373	98.5
366.599	90.5
366.826	90.5
367.052	90.5
367.278	95.5
367.505	92.5
367.731	90.5
367.957	82.5
368.184	97.5
368.41	111.5
368.636	104.5
368.862	99.5
369.089	96.5
369.315	77.5
369.541	90.5
369.767	84.5
369.993	83.5
370.219	98.5
370.445	89.5
370.672	97.5
370.898	102.5
371.124	90.5
371.35	94.5
371.576	81.5
371.802	92.5
372.028	92.5
372.254	88.5
372.48	91.5
372.706	108.5
372.932	99.5
373.158	100.5
373.384	97.5
373.61	84.5
373.835	90.5
374.061	104.5
374.287	95.5
374.513	89.5
374.739	106.5
374.965	82.5
375.191	96.5
375.416	95.5
375.642	85.5
375.868	102.5
376.094	94.5
376.319	94.5
376.545	99.5
376.771	85.5
376.997	93.5
377.222	98.5
377.448	96.5
377.674	85.5
377.899	101.5
378.125	89.5
378.35	88.5
378.576	86.5
378.802	87.5
379.027	85.5
379.253	93.5
379.478	83.5
379.704	82.5
379.929	90.5
380.155	86.5
380.38	93.5
380.606	97.5
380.831	100.5
381.057	114.5
381.282	91.5
381.507	86.5
381.733	101.5
381.958	93.5
382.184	92.5
382.409	81.5
382.634	101.5
382.86	75.5
383.085	96.5
383.31	102.5
383.535	100.5
383.761	88.5
383.986	100.5
384.211	88.5
384.436	97.5
384.662	97.5
384.887	92.5
385.112	115.5
385.337	96.5
385.562	98.5
385.787	104.5
386.013	108.5
386.238	92.5
386.463	106.5
386.688	99.5
386.913	98.5
387.138	95.5
387.363	75.5
387.588	93.5
387.813	99.5
388.038	96.5
388.263	106.5
388.488	91.5
388.713	81.5
388.938	77.5
389.163	83.5
389.387	81.5
389.612	102.5
389.837	99.5
390.062	100.5
390.287	94.5
390.512	85.5
390.736	103.5
390.961	93.5
391.186	110.5
391.411	101.5
391.636	96.5
391.86	96.5
392.085	112.5
392.31	93.5
392.534	89.5
392.759	92.5
392.984	88.5
393.208	86.5
393.433	102.5
393.658	91.5
393.882	104.5
394.107	104.5
394.331	92.5
394.556	95.5
394.78	86.5
395.005	107.5
395.229	102.5
395.454	94.5
395.678	106.5
395.903	105.5
396.127	127.5
396.352	100.5
396.576	89.5
396.801	98.5
397.025	83.5
397.249	91.5
397.474	100.5
397.698	101.5
397.922	97.5
398.147	99.5
398.371	94.5
398.595	104.5
398.82	104.5
399.044	108.5
399.268	97.5
399.492	83.5
399.717	111.5
399.941	99.5
400.165	103.5
400.389	101.5
400.613	100.5
400.837	98.5
401.062	105.5
401.286	101.5
401.51	112.5
401.734	98.5
401.958	97.5
402.182	100.5
402.406	100.5
402.63	97.5
402.854	102.5
403.078	97.5
403.302	94.5
403.526	101.5
403.75	94.5
403.974	99.5
404.198	89.5
404.422	90.5
404.645	99.5
404.869	94.5
405.093	104.5
405.317	101.5
405.541	102.5
405.765	105.5
405.988	100.5
406.212	95.5
406.436	97.5
406.66	89.5
406.883	95.5
407.107	116.5
407.331	97.5
407.555	125.5
407.778	102.5
408.002	105.5
408.226	103.5
408.449	104.5
408.673	108.5
408.896	113.5
409.12	109.5
409.344	91.5
409.567	102.5
409.791	93.5
410.014	104.5
410.238	109.5
410.461	94.5
410.685	101.5
410.908	121.5
411.132	97.5
411.355	93.5
411.578	96.5
411.802	102.5
412.025	108.5
412.249	96.5
412.472	110.5
412.695	99.5
412.919	101.5
413.142	89.5
413.365	90.5
413.589	106.5
413.812	94.5
414.035	88.5
414.258	100.5
414.482	94.5
414.705	93.5
414.928	86.5
415.151	92.5
415.374	95.5
415.597	108.5
415.821	101.5
416.044	108.5
416.267	88.5
416.49	95.5
416.713	96.5
416.936	121.5
417.159	108.5
417.382	104.5
417.605	76.5
417.828	89.5
418.051	93.5
418.274	90.5
418.497	89.5
418.72	101.5
418.943	99.5
419.166	106.5
419.389	96.5
419.611	94.5
419.834	94.5
420.057	107.5
420.28	98.5
420.503	110.5
420.726	94.5
420.948	105.5
421.171	86.5
421.394	93.5
421.617	105.5
421.839	107.5
422.062	92.5
422.285	98.5
422.507	96.5
422.73	104.5
422.953	99.5
423.175	103.5
423.398	99.5
423.621	108.5
423.843	96.5
424.066	105.5
424.288	101.5
424.511	95.5
424.733	96.5
424.956	97.5
425.178	87.5
425.401	94.5
425.623	102.5
425.846	98.5
426.068	97.5
426.291	97.5
426.513	101.5
426.735	99.5
426.958	105.5
427.18	81.5
427.402	76.5
427.625	92.5
427.847	98.5
428.069	94.5
428.292	96.5
428.514	105.5
428.736	107.5
428.958	89.5
429.181	96.5
429.403	97.5
429.625	91.5
429.847	90.5
430.069	100.5
430.292	89.5
430.514	84.5
430.736	88.5
430.958	110.5
431.18	104.5
431.402	99.5
431.624	88.5
431.846	89.5
432.068	97.5
432.29	90.5
432.512	97.5
432.734	104.5
432.956	102.5
433.178	95.5
433.4	109.5
433.622	97.5
433.844	106.5
434.066	98.5
434.287	90.5
434.509	96.5
434.731	95.5
434.953	105.5
435.175	102.5
435.397	83.5
435.618	94.5
435.84	102.5
436.062	100.5
436.284	89.5
436.505	86.5
436.727	93.5
436.949	72.5
437.17	105.5
437.392	90.5
437.614	83.5
437.835	105.5
438.057	87.5
438.278	99.5
438.5	97.5
438.721	97.5
438.943	93.5
439.165	80.5
439.386	87.5
439.608	104.5
439.829	105.5
440.05	96.5
440.272	101.5
440.493	96.5
440.715	77.5
440.936	109.5
441.158	95.5
441.379	94.5
441.6	105.5
441.822	89.5
442.043	102.5
442.264	102.5
442.486	94.5
442.707	107.5
442.928	88.5
443.149	108.5
443.371	91.5
443.592	86.5
443.813	101.5
444.034	103.5
444.255	90.5
444.476	99.5
444.698	107.5
444.919	99.5
445.14	205.5
445.361	142.5
445.582	93.5
445.803	105.5
446.024	97.5
446.245	112.5
446.466	103.5
446.687	88.5
446.908	103.5
447.129	112.5
447.35	115.5
447.571	84.5
447.792	90.5
448.013	92.5
448.234	102.5
448.455	96.5
448.675	105.5
448.896	99.5
449.117	102.5
449.338	99.5
449.559	90.5
449.779	100.5
450	98.5
450.221	99.5
450.442	94.5
450.662	86.5
450.883	97.5
451.104	99.5
451.324	100.5
451.545	100.5
451.766	94.5
451.986	96.5
452.207	98.5
452.428	102.5
452.648	98.5
452.869	87.5
453.089	98.5
453.31	100.5
453.53	87.5
453.751	103.5
453.971	86.5
454.192	92.5
454.412	91.5
454.633	89.5
454.853	117.5
455.073	93.5
455.294	89.5
455.514	90.5
455.734	98.5
455.955	92.5
456.175	96.5
456.395	79.5
456.616	87.5
456.836	88.5
457.056	84.5
457.276	82.5
457.497	92.5
457.717	82.5
457.937	103.5
458.157	89.5
458.377	95.5
458.598	98.5
458.818	90.5
459.038	82.5
459.258	80.5
459.478	96.5
459.698	89.5
459.918	98.5
460.138	83.5
460.358	103.5
460.578	80.5
460.798	95.5
461.018	92.5
461.238	92.5
461.458	104.5
461.678	100.5
461.898	110.5
462.118	119.5
462.338	108.5
462.558	114.5
462.777	102.5
462.997	102.5
463.217	93.5
463.437	98.5
463.657	93.5
463.876	100.5
464.096	106.5
464.316	99.5
464.536	98.5
464.755	107.5
464.975	88.5
465.195	102.5
465.414	101.5
465.634	100.5
465.854	100.5
466.073	93.5
466.293	96.5
466.512	113.5
466.732	105.5
466.951	104.5
467.171	107.5
467.391	99.5
467.61	86.5
467.829	92.5
468.049	93.5
468.268	96.5
468.488	114.5
468.707	115.5
468.927	89.5
469.146	84.5
469.365	96.5
469.585	85.5
469.804	87.5
470.023	105.5
470.243	101.5
470.462	109.5
470.681	85.5
470.901	86.5
471.12	102.5
471.339	116.5
471.558	106.5
471.777	99.5
471.997	91.5
472.216	105.5
472.435	84.5
472.654	96.5
472.873	93.5
473.092	108.5
473.311	88.5
473.53	91.5
473.749	96.5
473.968	88.5
474.187	113.5
474.406	97.5
474.625	90.5
474.844	114.5
475.063	81.5
475.282	82.5
475.501	102.5
475.72	94.5
475.939	81.5
476.158	101.5
476.377	105.5
476.596	100.5
476.814	101.5
477.033	81.5
477.252	86.5
477.471	98.5
477.69	106.5
477.908	109.5
478.127	104.5
478.346	94.5
478.564	109.5
478.783	91.5
479.002	108.5
479.22	99.5
479.439	102.5
479.658	92.5
479.876	99.5
480.095	84.5
480.313	104.5
480.532	108.5
480.751	109.5
480.969	91.5
481.188	105.5
481.406	92.5
481.624	98.5
481.843	117.5
482.061	96.5
482.28	93.5
482.498	94.5
482.717	91.5
482.935	98.5
483.153	106.5
483.372	114.5
483.59	121.5
483.808	111.5
484.027	119.5
484.245	102.5
484.463	85.5
484.681	102.5
484.9	107.5
485.118	103.5
485.336	92.5
485.554	91.5
485.772	107.5
485.99	114.5
486.209	104.5
486.427	89.5
486.645	108.5
486.863	108.5
487.081	85.5
487.299	108.5
487.517	91.5
487.735	103.5
487.953	114.5
488.171	114.5
488.389	102.5
488.607	102.5
488.825	94.5
489.043	99.5
489.261	98.5
489.479	125.5
489.696	101.5
489.914	120.5
490.132	106.5
490.35	106.5
490.568	114.5
490.786	110.5
491.003	109.5
491.221	120.5
491.439	118.5
491.657	113.5
491.874	125.5
492.092	122.5
492.31	122.5
492.527	118.5
492.745	109.5
492.963	118.5
493.18	113.5
493.398	115.5
493.615	99.5
493.833	113.5
494.05	109.5
494.268	114.5
494.485	125.5
494.703	114.5
494.92	123.5
495.138	107.5
495.355	123.5
495.573	116.5
495.79	114.5
496.008	118.5
496.225	111.5
496.442	105.5
496.66	134.5
496.877	101.5
497.094	109.5
497.312	112.5
497.529	103.5
497.746	107.5
497.963	96.5
498.181	121.5
498.398	94.5
498.615	118.5
498.832	116.5
499.049	118.5
499.267	130.5
499.484	123.5
499.701	122.5
499.918	140.5
500.135	137.5
500.352	160.5
500.569	166.5
500.786	148.5
501.003	153.5
501.22	141.5
501.437	135.5
501.654	143.5
501.871	128.5
502.088	117.5
502.305	109.5
502.522	114.5
502.739	113.5
502.956	123.5
503.172	110.5
503.389	89.5
503.606	102.5
503.823	111.5
504.04	120.5
504.256	108.5
504.473	104.5
504.69	109.5
504.907	123.5
505.123	112.5
505.34	114.5
505.557	117.5
505.773	119.5
505.99	105.5
506.207	98.5
506.423	106.5
506.64	118.5
506.856	118.5
507.073	102.5
507.289	116.5
507.506	109.5
507.722	100.5
507.939	113.5
508.155	113.5
508.372	111.5
508.588	101.5
508.805	114.5
509.021	112.5
509.238	103.5
509.454	98.5
509.67	112.5
509.887	102.5
510.103	95.5
510.319	98.5
510.536	108.5
510.752	68.5
510.968	100.5
511.184	83.5
511.401	100.5
511.617	101.5
511.833	100.5
512.049	91.5
512.265	106.5
512.481	106.5
512.698	100.5
512.914	95.5
513.13	102.5
513.346	104.5
513.562	107.5
513.778	99.5
513.994	102.5
514.21	97.5
514.426	109.5
514.642	93.5
514.858	115.5
515.074	95.5
515.29	114.5
515.506	92.5
515.721	107.5
515.937	116.5
516.153	116.5
516.369	103.5
516.585	92.5
516.801	90.5
517.016	111.5
517.232	107.5
517.448	101.5
517.664	107.5
517.879	121.5
518.095	106.5
518.311	112.5
518.527	105.5
518.742	104.5
518.958	110.5
519.173	107.5
519.389	105.5
519.605	94.5
519.82	104.5
520.036	109.5
520.251	102.5
520.467	105.5
520.682	107.5
520.898	96.5
521.113	122.5
521.329	98.5
521.544	96.5
521.76	98.5
521.975	88.5
522.19	102.5
522.406	96.5
522.621	98.5
522.836	92.5
523.052	99.5
523.267	85.5
523.482	99.5
523.698	95.5
523.913	107.5
524.128	96.5
524.343	119.5
524.559	96.5
524.774	96.5
524.989	112.5
525.204	117.5
525.419	97.5
525.634	80.5
525.849	106.5
526.064	96.5
526.28	96.5
526.495	94.5
526.71	101.5
526.925	95.5
527.14	90.5
527.355	91.5
527.57	97.5
527.785	94.5
527.999	107.5
528.214	85.5
528.429	113.5
528.644	107.5
528.859	98.5
529.074	96.5
529.289	101.5
529.503	95.5
529.718	94.5
529.933	94.5
530.148	101.5
530.363	90.5
530.577	104.5
530.792	99.5
531.007	100.5
531.221	94.5
531.436	99.5
531.651	105.5
531.865	94.5
532.08	102.5
532.295	118.5
532.509	102.5
532.724	106.5
532.938	83.5
533.153	102.5
533.367	100.5
533.582	106.5
533.796	101.5
534.011	96.5
534.225	89.5
534.44	96.5
534.654	89.5
534.868	93.5
535.083	110.5
535.297	103.5
535.511	124.5
535.726	108.5
535.94	94.5
536.154	101.5
536.369	86.5
536.583	104.5
536.797	98.5
537.011	96.5
537.225	115.5
537.44	96.5
537.654	127.5
537.868	101.5
538.082	100.5
538.296	104.5
538.51	100.5
538.724	104.5
538.938	94.5
539.153	96.5
539.367	101.5
539.581	92.5
539.795	107.5
540.009	83.5
540.222	102.5
540.436	102.5
540.65	89.5
540.864	94.5
541.078	122.5
541.292	107.5
541.506	93.5
541.72	103.5
541.934	109.5
542.147	115.5
542.361	108.5
542.575	104.5
542.789	106.5
543.002	99.5
543.216	109.5
543.43	88.5
543.644	112.5
543.857	93.5
544.071	102.5
544.285	106.5
544.498	96.5
544.712	100.5
544.925	96.5
545.139	102.5
545.352	101.5
545.566	107.5
545.779	113.5
545.993	101.5
546.206	101.5
546.42	102.5
546.633	98.5
546.847	100.5
547.06	102.5
547.274	109.5
547.487	101.5
547.7	107.5
547.914	105.5
548.127	105.5
548.34	102.5
548.554	102.5
548.767	99.5
548.98	95.5
549.193	91.5
549.407	108.5
549.62	97.5
549.833	110.5
550.046	101.5
550.259	112.5
550.473	106.5
550.686	114.5
550.899	113.5
551.112	124.5
551.325	108.5
551.538	102.5
551.751	99.5
551.964	88.5
552.177	96.5
552.39	90.5
552.603	110.5
552.816	106.5
553.029	112.5
553.242	100.5
553.455	106.5
553.667	105.5
553.88	114.5
554.093	108.5
554.306	116.5
554.519	106.5
554.732	97.5
554.944	104.5
555.157	84.5
555.37	94.5
555.583	88.5
555.795	104.5
556.008	107.5
556.221	95.5
556.433	100.5
556.646	109.5
556.859	94.5
557.071	97.5
557.284	109.5
557.496	104.5
557.709	81.5
557.921	93.5
558.134	100.5
558.346	93.5
558.559	89.5
558.771	100.5
558.984	92.5
559.196	90.5
559.409	91.5
559.621	96.5
559.833	112.5
560.046	93.5
560.258	108.5
560.47	94.5
560.683	101.5
560.895	106.5
561.107	88.5
561.32	91.5
561.532	104.5
561.744	89.5
561.956	90.5
562.168	93.5
562.381	96.5
562.593	89.5
562.805	100.5
563.017	87.5
563.229	85.5
563.441	102.5
563.653	97.5
563.865	91.5
564.077	83.5
564.289	92.5
564.501	99.5
564.713	98.5
564.925	96.5
565.137	98.5
565.349	90.5
565.561	90.5
565.773	109.5
565.985	88.5
566.197	102.5
566.408	79.5
566.62	108.5
566.832	102.5
567.044	105.5
567.255	113.5
567.467	112.5
567.679	113.5
567.891	103.5
568.102	101.5
568.314	98.5
568.526	101.5
568.737	87.5
568.949	95.5
569.161	99.5
569.372	100.5
569.584	87.5
569.795	98.5
570.007	89.5
570.218	91.5
570.43	92.5
570.641	79.5
570.853	101.5
571.064	86.5
571.276	97.5
571.487	97.5
571.698	93.5
571.91	94.5
572.121	89.5
572.333	87.5
572.544	80.5
572.755	99.5
572.966	109.5
573.178	85.5
573.389	88.5
573.6	95.5
573.811	94.5
574.023	87.5
574.234	81.5
574.445	92.5
574.656	95.5
574.867	82.5
575.078	100.5
575.289	93.5
575.501	105.5
575.712	93.5
575.923	81.5
576.134	85.5
576.345	103.5
576.556	108.5
576.767	101.5
576.978	89.5
577.188	93.5
577.399	100.5
577.61	81.5
577.821	100.5
578.032	111.5
578.243	90.5
578.454	104.5
578.665	91.5
578.875	94.5
579.086	95.5
579.297	81.5
579.508	91.5
579.718	90.5
579.929	96.5
580.14	86.5
580.35	87.5
580.561	92.5
580.772	86.5
580.982	83.5
581.193	105.5
581.403	102.5
581.614	93.5
581.825	99.5
582.035	99.5
582.246	100.5
582.456	87.5
582.667	98.5
582.877	90.5
583.087	89.5
583.298	94.5
583.508	92.5
583.719	99.5
583.929	91.5
584.139	82.5
584.35	94.5
584.56	109.5
584.77	77.5
584.981	103.5
585.191	94.5
585.401	80.5
585.611	83.5
585.821	87.5
586.032	90.5
586.242	83.5
586.452	94.5
586.662	84.5
586.872	88.5
587.082	89.5
587.292	73.5
587.502	73.5
587.713	87.5
587.923	81.5
588.133	99.5
588.343	100.5
588.553	94.5
588.762	108.5
588.972	100.5
589.182	122.5
589.392	112.5
589.602	90.5
589.812	97.5
590.022	100.5
590.232	98.5
590.441	91.5
590.651	100.5
590.861	91.5
591.071	82.5
591.281	100.5
591.49	84.5
591.7	109.5
591.91	97.5
592.119	88.5
592.329	112.5
592.539	102.5
592.748	90.5
592.958	82.5
593.167	102.5
593.377	91.5
593.587	105.5
593.796	96.5
594.006	96.5
594.215	84.5
594.424	102.5
594.634	95.5
594.843	100.5
595.053	97.5
595.262	92.5
595.472	87.5
595.681	93.5
595.89	90.5
596.1	90.5
596.309	87.5
596.518	96.5
596.727	99.5
596.937	87.5
597.146	77.5
597.355	94.5
597.564	89.5
597.774	96.5
597.983	86.5
598.192	87.5
598.401	93.5
598.61	89.5
598.819	85.5
599.028	99.5
599.237	92.5
599.446	102.5
599.655	101.5
599.864	91.5
600.073	88.5
600.282	80.5
600.491	83.5
600.7	97.5
600.909	100.5
601.118	81.5
601.327	83.5
601.536	84.5
601.745	90.5
601.953	108.5
602.162	83.5
602.371	76.5
602.58	72.5
602.789	89.5
602.997	90.5
603.206	92.5
603.415	92.5
603.623	101.5
603.832	98.5
604.041	100.5
604.249	87.5
604.458	92.5
604.666	88.5
604.875	82.5
605.084	92.5
605.292	84.5
605.501	100.5
605.709	82.5
605.918	99.5
606.126	85.5
606.334	92.5
606.543	95.5
606.751	88.5
606.96	86.5
607.168	82.5
607.376	81.5
607.585	83.5
607.793	78.5
608.001	92.5
608.21	84.5
608.418	86.5
608.626	83.5
608.834	95.5
609.043	97.5
609.251	86.5
609.459	85.5
609.667	93.5
609.875	76.5
610.083	90.5
610.291	109.5
610.499	89.5
610.707	77.5
610.916	82.5
611.124	86.5
611.332	94.5
611.54	97.5
611.748	92.5
611.955	86.5
612.163	93.5
612.371	101.5
612.579	87.5
612.787	101.5
612.995	93.5
613.203	93.5
613.411	90.5
613.618	91.5
613.826	79.5
614.034	88.5
614.242	91.5
614.449	88.5
614.657	93.5
614.865	92.5
615.072	93.5
615.28	97.5
615.488	69.5
615.695	86.5
615.903	101.5
616.111	90.5
616.318	96.5
616.526	85.5
616.733	88.5
616.941	101.5
617.148	97.5
617.356	94.5
617.563	101.5
617.771	97.5
617.978	86.5
618.185	98.5
618.393	71.5
618.6	93.5
618.807	94.5
619.015	85.5
619.222	109.5
619.429	98.5
619.637	88.5
619.844	88.5
620.051	98.5
620.258	86.5
620.466	90.5
620.673	81.5
620.88	78.5
621.087	90.5
621.294	84.5
621.501	87.5
621.708	89.5
621.915	89.5
622.122	107.5
622.329	91.5
622.536	82.5
622.743	85.5
622.95	93.5
623.157	92.5
623.364	96.5
623.571	91.5
623.778	80.5
623.985	91.5
624.192	81.5
624.399	97.5
624.606	94.5
624.812	76.5
625.019	86.5
625.226	95.5
625.433	81.5
625.639	86.5
625.846	94.5
626.053	96.5
626.259	98.5
626.466	93.5
626.673	94.5
626.879	89.5
627.086	99.5
627.293	102.5
627.499	89.5
627.706	81.5
627.912	84.5
628.119	89.5
628.325	87.5
628.532	92.5
628.738	80.5
628.945	96.5
629.151	103.5
629.357	85.5
629.564	83.5
629.77	95.5
629.976	82.5
630.183	84.5
630.389	69.5
630.595	85.5
630.802	82.5
631.008	86.5
631.214	90.5
631.42	87.5
631.627	94.5
631.833	88.5
632.039	84.5
632.245	92.5
632.451	85.5
632.657	87.5
632.863	88.5
633.069	85.5
633.275	83.5
633.481	77.5
633.688	87.5
633.893	90.5
634.099	90.5
634.305	100.5
634.511	81.5
634.717	87.5
634.923	89.5
635.129	83.5
635.335	88.5
635.541	85.5
635.747	75.5
635.952	86.5
636.158	86.5
636.364	83.5
636.57	80.5
636.775	83.5
636.981	92.5
637.187	82.5
637.392	89.5
637.598	84.5
637.804	95.5
638.009	81.5
638.215	105.5
638.421	86.5
638.626	87.5
638.832	103.5
639.037	72.5
639.243	81.5
639.448	90.5
639.654	86.5
639.859	90.5
640.065	84.5
640.27	76.5
640.475	99.5
640.681	85.5
640.886	82.5
641.091	88.5
641.297	90.5
641.502	92.5
641.707	86.5
641.913	82.5
642.118	79.5
642.323	92.5
642.528	100.5
642.733	89.5
642.939	98.5
643.144	98.5
643.349	92.5
643.554	102.5
643.759	106.5
643.964	75.5
644.169	93.5
644.374	84.5
644.579	96.5
644.784	81.5
644.989	71.5
645.194	93.5
645.399	88.5
645.604	99.5
645.809	86.5
646.014	75.5
646.219	82.5
646.423	93.5
646.628	99.5
646.833	75.5
647.038	103.5
647.243	96.5
647.447	89.5
647.652	87.5
647.857	86.5
648.062	81.5
648.266	100.5
648.471	78.5
648.676	84.5
648.88	84.5
649.085	91.5
649.289	79.5
649.494	99.5
649.698	81.5
649.903	88.5
650.107	79.5
650.312	82.5
650.516	101.5
650.721	86.5
650.925	86.5
651.13	84.5
651.334	83.5
651.539	84.5
651.743	75.5
651.947	78.5
652.152	76.5
652.356	78.5
652.56	92.5
652.764	86.5
652.969	84.5
653.173	85.5
653.377	87.5
653.581	90.5
653.785	91.5
653.99	87.5
654.194	80.5
654.398	72.5
654.602	89.5
654.806	77.5
655.01	82.5
655.214	94.5
655.418	90.5
655.622	78.5
655.826	90.5
656.03	91.5
656.234	89.5
656.438	76.5
656.642	79.5
656.846	78.5
657.049	109.5
657.253	85.5
657.457	99.5
657.661	87.5
657.865	75.5
658.068	73.5
658.272	75.5
658.476	89.5
658.68	89.5
658.883	72.5
659.087	76.5
659.291	69.5
659.494	89.5
659.698	85.5
659.901	83.5
660.105	80.5
660.309	72.5
660.512	100.5
660.716	94.5
660.919	84.5
661.123	93.5
661.326	87.5
661.53	85.5
661.733	90.5
661.936	90.5
662.14	90.5
662.343	91.5
662.546	77.5
662.75	81.5
662.953	94.5
663.156	84.5
663.36	97.5
663.563	75.5
663.766	78.5
663.969	78.5
664.173	89.5
664.376	77.5
664.579	84.5
664.782	78.5
664.985	85.5
665.188	78.5
665.391	101.5
665.594	85.5
665.797	74.5
666	73.5
666.203	70.5
666.406	73.5
666.609	82.5
666.812	95.5
667.015	91.5
667.218	93.5
667.421	86.5
667.624	94.5
667.827	114.5
668.03	95.5
668.232	94.5
668.435	85.5
668.638	92.5
668.841	90.5
669.043	87.5
669.246	82.5
669.449	86.5
669.651	97.5
669.854	101.5
670.057	79.5
670.259	89.5
670.462	88.5
670.665	96.5
670.867	95.5
671.07	87.5
671.272	98.5
671.475	80.5
671.677	85.5
671.88	87.5
672.082	88.5
672.284	87.5
672.487	69.5
672.689	90.5
672.892	86.5
