Data from 0.5MCu(NO3)2.Standard.Lamp.E10.CV._HRD10591_16-04-48-752.txt Node
Date: Mon Jul 22 16:04:48 EDT 2019
User: cochatt
Spectrometer: HR+D1059
Trigger mode: 1
Integration Time (sec): 1.000000E-1
Scans to average: 1
Electric dark correction enabled: true
Nonlinearity correction enabled: false
Boxcar width: 0
XAxis mode: Wavelengths
Number of Pixels in Spectrum: 2048
>>>>>Begin Spectral Data<<<<<
223.165	-21.56
223.4	-21.56
223.635	-21.56
223.869	-20.56
224.104	-24.56
224.338	-20.56
224.573	-11.56
224.808	-4.56
225.042	-9.56
225.277	-12.56
225.511	5.44
225.746	13.44
225.98	4.44
226.215	11.44
226.449	12.44
226.683	25.44
226.918	19.44
227.152	33.44
227.387	45.44
227.621	50.44
227.856	50.44
228.09	38.44
228.324	44.44
228.559	59.44
228.793	60.44
229.027	72.44
229.262	63.44
229.496	72.44
229.73	79.44
229.964	100.44
230.199	82.44
230.433	73.44
230.667	86.44
230.901	88.44
231.136	102.44
231.37	91.44
231.604	90.44
231.838	92.44
232.072	98.44
232.306	77.44
232.541	96.44
232.775	94.44
233.009	106.44
233.243	95.44
233.477	91.44
233.711	97.44
233.945	83.44
234.179	81.44
234.413	94.44
234.647	102.44
234.881	89.44
235.115	92.44
235.349	93.44
235.583	87.44
235.817	84.44
236.051	107.44
236.285	107.44
236.519	91.44
236.753	95.44
236.987	93.44
237.221	88.44
237.455	118.44
237.689	102.44
237.922	83.44
238.156	75.44
238.39	83.44
238.624	85.44
238.858	96.44
239.091	93.44
239.325	102.44
239.559	104.44
239.793	102.44
240.027	89.44
240.26	99.44
240.494	99.44
240.728	86.44
240.961	87.44
241.195	112.44
241.429	98.44
241.662	100.44
241.896	102.44
242.13	93.44
242.363	107.44
242.597	97.44
242.83	99.44
243.064	101.44
243.298	94.44
243.531	94.44
243.765	93.44
243.998	104.44
244.232	108.44
244.465	98.44
244.699	115.44
244.932	97.44
245.166	107.44
245.399	101.44
245.633	103.44
245.866	105.44
246.099	98.44
246.333	113.44
246.566	115.44
246.8	115.44
247.033	106.44
247.266	114.44
247.5	110.44
247.733	118.44
247.966	105.44
248.2	102.44
248.433	98.44
248.666	102.44
248.899	105.44
249.133	105.44
249.366	101.44
249.599	107.44
249.832	110.44
250.066	114.44
250.299	118.44
250.532	116.44
250.765	106.44
250.998	104.44
251.231	116.44
251.465	122.44
251.698	108.44
251.931	120.44
252.164	110.44
252.397	122.44
252.63	114.44
252.863	109.44
253.096	109.44
253.329	111.44
253.562	94.44
253.795	108.44
254.028	118.44
254.261	121.44
254.494	119.44
254.727	132.44
254.96	118.44
255.193	126.44
255.426	109.44
255.659	113.44
255.892	119.44
256.124	131.44
256.357	115.44
256.59	118.44
256.823	122.44
257.056	118.44
257.289	125.44
257.521	129.44
257.754	120.44
257.987	123.44
258.22	131.44
258.452	128.44
258.685	125.44
258.918	114.44
259.151	122.44
259.383	105.44
259.616	119.44
259.849	119.44
260.081	124.44
260.314	141.44
260.547	133.44
260.779	129.44
261.012	129.44
261.244	122.44
261.477	137.44
261.71	129.44
261.942	118.44
262.175	137.44
262.407	113.44
262.64	128.44
262.872	142.44
263.105	138.44
263.337	126.44
263.57	122.44
263.802	122.44
264.035	132.44
264.267	123.44
264.499	140.44
264.732	140.44
264.964	134.44
265.197	130.44
265.429	137.44
265.661	146.44
265.894	130.44
266.126	145.44
266.358	142.44
266.591	140.44
266.823	150.44
267.055	132.44
267.287	129.44
267.52	133.44
267.752	135.44
267.984	141.44
268.216	139.44
268.448	138.44
268.681	122.44
268.913	146.44
269.145	143.44
269.377	135.44
269.609	143.44
269.841	137.44
270.073	134.44
270.306	133.44
270.538	131.44
270.77	129.44
271.002	139.44
271.234	135.44
271.466	148.44
271.698	135.44
271.93	123.44
272.162	148.44
272.394	130.44
272.626	149.44
272.858	137.44
273.09	141.44
273.322	156.44
273.553	153.44
273.785	135.44
274.017	137.44
274.249	146.44
274.481	157.44
274.713	147.44
274.945	142.44
275.176	171.44
275.408	167.44
275.64	153.44
275.872	168.44
276.104	163.44
276.335	147.44
276.567	153.44
276.799	135.44
277.031	153.44
277.262	155.44
277.494	162.44
277.726	167.44
277.957	146.44
278.189	150.44
278.421	153.44
278.652	148.44
278.884	149.44
279.115	155.44
279.347	153.44
279.579	164.44
279.81	157.44
280.042	137.44
280.273	150.44
280.505	170.44
280.736	166.44
280.968	170.44
281.199	155.44
281.431	157.44
281.662	159.44
281.894	181.44
282.125	161.44
282.356	165.44
282.588	162.44
282.819	161.44
283.051	164.44
283.282	149.44
283.513	172.44
283.745	177.44
283.976	157.44
284.207	168.44
284.439	174.44
284.67	164.44
284.901	163.44
285.132	177.44
285.364	179.44
285.595	165.44
285.826	178.44
286.057	158.44
286.288	169.44
286.52	170.44
286.751	149.44
286.982	161.44
287.213	161.44
287.444	161.44
287.675	174.44
287.906	172.44
288.138	177.44
288.369	166.44
288.6	171.44
288.831	172.44
289.062	164.44
289.293	171.44
289.524	189.44
289.755	179.44
289.986	170.44
290.217	173.44
290.448	167.44
290.679	184.44
290.91	181.44
291.141	177.44
291.371	175.44
291.602	159.44
291.833	183.44
292.064	189.44
292.295	174.44
292.526	172.44
292.757	185.44
292.987	187.44
293.218	177.44
293.449	186.44
293.68	167.44
293.91	189.44
294.141	188.44
294.372	183.44
294.603	177.44
294.833	171.44
295.064	183.44
295.295	179.44
295.525	185.44
295.756	198.44
295.987	177.44
296.217	185.44
296.448	194.44
296.679	179.44
296.909	182.44
297.14	200.44
297.37	190.44
297.601	181.44
297.831	186.44
298.062	195.44
298.292	184.44
298.523	212.44
298.753	199.44
298.984	206.44
299.214	202.44
299.445	190.44
299.675	182.44
299.905	188.44
300.136	187.44
300.366	194.44
300.597	203.44
300.827	194.44
301.057	188.44
301.288	200.44
301.518	201.44
301.748	211.44
301.979	214.44
302.209	180.44
302.439	202.44
302.669	180.44
302.9	194.44
303.13	183.44
303.36	207.44
303.59	189.44
303.82	186.44
304.051	195.44
304.281	199.44
304.511	190.44
304.741	184.44
304.971	190.44
305.201	201.44
305.431	199.44
305.661	204.44
305.891	197.44
306.121	201.44
306.352	199.44
306.582	187.44
306.812	190.44
307.042	185.44
307.272	202.44
307.502	184.44
307.731	184.44
307.961	189.44
308.191	203.44
308.421	187.44
308.651	182.44
308.881	197.44
309.111	198.44
309.341	182.44
309.571	187.44
309.8	193.44
310.03	191.44
310.26	194.44
310.49	186.44
310.72	199.44
310.949	197.44
311.179	190.44
311.409	189.44
311.639	191.44
311.868	194.44
312.098	203.44
312.328	214.44
312.557	212.44
312.787	196.44
313.017	199.44
313.246	204.44
313.476	205.44
313.706	204.44
313.935	213.44
314.165	217.44
314.394	215.44
314.624	208.44
314.853	222.44
315.083	191.44
315.312	200.44
315.542	206.44
315.771	211.44
316.001	195.44
316.23	189.44
316.46	207.44
316.689	188.44
316.919	203.44
317.148	213.44
317.377	231.44
317.607	214.44
317.836	212.44
318.065	200.44
318.295	187.44
318.524	209.44
318.753	198.44
318.983	190.44
319.212	221.44
319.441	210.44
319.67	188.44
319.9	206.44
320.129	221.44
320.358	193.44
320.587	195.44
320.816	213.44
321.046	214.44
321.275	217.44
321.504	212.44
321.733	207.44
321.962	207.44
322.191	203.44
322.42	197.44
322.649	209.44
322.878	213.44
323.108	198.44
323.337	206.44
323.566	216.44
323.795	201.44
324.024	206.44
324.253	224.44
324.482	198.44
324.71	205.44
324.939	212.44
325.168	188.44
325.397	218.44
325.626	205.44
325.855	214.44
326.084	237.44
326.313	223.44
326.542	225.44
326.77	215.44
326.999	218.44
327.228	218.44
327.457	221.44
327.686	207.44
327.914	208.44
328.143	204.44
328.372	222.44
328.6	222.44
328.829	220.44
329.058	232.44
329.287	216.44
329.515	225.44
329.744	227.44
329.972	216.44
330.201	213.44
330.43	225.44
330.658	220.44
330.887	201.44
331.115	220.44
331.344	211.44
331.572	218.44
331.801	235.44
332.03	257.44
332.258	257.44
332.486	261.44
332.715	244.44
332.943	244.44
333.172	256.44
333.4	271.44
333.629	287.44
333.857	286.44
334.085	269.44
334.314	275.44
334.542	263.44
334.771	265.44
334.999	261.44
335.227	245.44
335.455	241.44
335.684	261.44
335.912	264.44
336.14	237.44
336.369	257.44
336.597	248.44
336.825	251.44
337.053	258.44
337.281	236.44
337.51	230.44
337.738	235.44
337.966	245.44
338.194	240.44
338.422	246.44
338.65	221.44
338.878	232.44
339.106	230.44
339.334	237.44
339.562	242.44
339.79	227.44
340.018	222.44
340.246	232.44
340.474	215.44
340.702	223.44
340.93	192.44
341.158	239.44
341.386	224.44
341.614	214.44
341.842	217.44
342.07	235.44
342.298	206.44
342.526	209.44
342.754	216.44
342.981	227.44
343.209	212.44
343.437	222.44
343.665	236.44
343.893	262.44
344.12	266.44
344.348	256.44
344.576	261.44
344.804	243.44
345.031	231.44
345.259	229.44
345.487	229.44
345.714	212.44
345.942	226.44
346.17	218.44
346.397	210.44
346.625	217.44
346.853	231.44
347.08	227.44
347.308	205.44
347.535	218.44
347.763	235.44
347.99	218.44
348.218	224.44
348.445	227.44
348.673	218.44
348.9	225.44
349.128	231.44
349.355	217.44
349.583	201.44
349.81	215.44
350.037	214.44
350.265	210.44
350.492	222.44
350.72	200.44
350.947	214.44
351.174	216.44
351.402	205.44
351.629	215.44
351.856	193.44
352.083	207.44
352.311	218.44
352.538	203.44
352.765	218.44
352.992	211.44
353.22	201.44
353.447	197.44
353.674	213.44
353.901	215.44
354.128	222.44
354.355	196.44
354.583	202.44
354.81	209.44
355.037	216.44
355.264	193.44
355.491	202.44
355.718	211.44
355.945	187.44
356.172	187.44
356.399	209.44
356.626	200.44
356.853	222.44
357.08	204.44
357.307	197.44
357.534	195.44
357.761	204.44
357.988	219.44
358.215	214.44
358.441	206.44
358.668	201.44
358.895	205.44
359.122	216.44
359.349	213.44
359.576	213.44
359.802	212.44
360.029	227.44
360.256	214.44
360.483	203.44
360.709	221.44
360.936	202.44
361.163	212.44
361.39	217.44
361.616	183.44
361.843	207.44
362.07	202.44
362.296	214.44
362.523	201.44
362.749	201.44
362.976	197.44
363.203	213.44
363.429	207.44
363.656	207.44
363.882	202.44
364.109	194.44
364.335	208.44
364.562	197.44
364.788	203.44
365.015	201.44
365.241	215.44
365.468	194.44
365.694	212.44
365.92	203.44
366.147	193.44
366.373	210.44
366.599	206.44
366.826	203.44
367.052	227.44
367.278	201.44
367.505	201.44
367.731	206.44
367.957	206.44
368.184	225.44
368.41	205.44
368.636	205.44
368.862	195.44
369.089	203.44
369.315	195.44
369.541	215.44
369.767	206.44
369.993	209.44
370.219	210.44
370.445	209.44
370.672	216.44
370.898	225.44
371.124	229.44
371.35	217.44
371.576	216.44
371.802	230.44
372.028	220.44
372.254	213.44
372.48	217.44
372.706	242.44
372.932	218.44
373.158	218.44
373.384	215.44
373.61	224.44
373.835	217.44
374.061	220.44
374.287	227.44
374.513	215.44
374.739	220.44
374.965	242.44
375.191	231.44
375.416	234.44
375.642	227.44
375.868	242.44
376.094	232.44
376.319	241.44
376.545	222.44
376.771	215.44
376.997	212.44
377.222	213.44
377.448	220.44
377.674	217.44
377.899	229.44
378.125	210.44
378.35	212.44
378.576	216.44
378.802	224.44
379.027	222.44
379.253	230.44
379.478	214.44
379.704	219.44
379.929	193.44
380.155	211.44
380.38	217.44
380.606	214.44
380.831	207.44
381.057	207.44
381.282	230.44
381.507	214.44
381.733	209.44
381.958	226.44
382.184	229.44
382.409	215.44
382.634	219.44
382.86	241.44
383.085	235.44
383.31	246.44
383.535	236.44
383.761	240.44
383.986	245.44
384.211	247.44
384.436	251.44
384.662	253.44
384.887	250.44
385.112	247.44
385.337	274.44
385.562	245.44
385.787	237.44
386.013	253.44
386.238	246.44
386.463	260.44
386.688	260.44
386.913	245.44
387.138	227.44
387.363	250.44
387.588	247.44
387.813	245.44
388.038	234.44
388.263	257.44
388.488	255.44
388.713	257.44
388.938	247.44
389.163	258.44
389.387	254.44
389.612	241.44
389.837	233.44
390.062	253.44
390.287	239.44
390.512	233.44
390.736	253.44
390.961	245.44
391.186	265.44
391.411	266.44
391.636	253.44
391.86	289.44
392.085	278.44
392.31	291.44
392.534	266.44
392.759	264.44
392.984	269.44
393.208	254.44
393.433	267.44
393.658	249.44
393.882	238.44
394.107	281.44
394.331	272.44
394.556	250.44
394.78	274.44
395.005	302.44
395.229	281.44
395.454	266.44
395.678	267.44
395.903	266.44
396.127	263.44
396.352	255.44
396.576	230.44
396.801	247.44
397.025	261.44
397.249	252.44
397.474	291.44
397.698	265.44
397.922	270.44
398.147	266.44
398.371	280.44
398.595	277.44
398.82	277.44
399.044	307.44
399.268	340.44
399.492	386.44
399.717	428.44
399.941	413.44
400.165	381.44
400.389	334.44
400.613	299.44
400.837	295.44
401.062	285.44
401.286	300.44
401.51	302.44
401.734	284.44
401.958	309.44
402.182	302.44
402.406	301.44
402.63	306.44
402.854	315.44
403.078	321.44
403.302	330.44
403.526	309.44
403.75	318.44
403.974	341.44
404.198	363.44
404.422	335.44
404.645	332.44
404.869	317.44
405.093	330.44
405.317	321.44
405.541	329.44
405.765	309.44
405.988	295.44
406.212	319.44
406.436	305.44
406.66	321.44
406.883	328.44
407.107	346.44
407.331	365.44
407.555	374.44
407.778	358.44
408.002	348.44
408.226	341.44
408.449	347.44
408.673	330.44
408.896	339.44
409.12	328.44
409.344	335.44
409.567	331.44
409.791	327.44
410.014	312.44
410.238	320.44
410.461	320.44
410.685	320.44
410.908	315.44
411.132	302.44
411.355	300.44
411.578	309.44
411.802	300.44
412.025	311.44
412.249	315.44
412.472	293.44
412.695	313.44
412.919	314.44
413.142	293.44
413.365	279.44
413.589	293.44
413.812	284.44
414.035	285.44
414.258	298.44
414.482	305.44
414.705	308.44
414.928	299.44
415.151	301.44
415.374	287.44
415.597	273.44
415.821	285.44
416.044	281.44
416.267	280.44
416.49	295.44
416.713	306.44
416.936	294.44
417.159	281.44
417.382	299.44
417.605	305.44
417.828	291.44
418.051	293.44
418.274	293.44
418.497	302.44
418.72	294.44
418.943	295.44
419.166	311.44
419.389	321.44
419.611	300.44
419.834	315.44
420.057	322.44
420.28	321.44
420.503	295.44
420.726	291.44
420.948	280.44
421.171	292.44
421.394	295.44
421.617	282.44
421.839	279.44
422.062	293.44
422.285	285.44
422.507	303.44
422.73	300.44
422.953	301.44
423.175	301.44
423.398	306.44
423.621	299.44
423.843	330.44
424.066	307.44
424.288	306.44
424.511	309.44
424.733	319.44
424.956	297.44
425.178	282.44
425.401	275.44
425.623	278.44
425.846	282.44
426.068	273.44
426.291	283.44
426.513	280.44
426.735	277.44
426.958	270.44
427.18	268.44
427.402	288.44
427.625	274.44
427.847	256.44
428.069	277.44
428.292	272.44
428.514	284.44
428.736	269.44
428.958	258.44
429.181	259.44
429.403	249.44
429.625	262.44
429.847	253.44
430.069	273.44
430.292	270.44
430.514	262.44
430.736	264.44
430.958	281.44
431.18	254.44
431.402	248.44
431.624	252.44
431.846	250.44
432.068	262.44
432.29	269.44
432.512	277.44
432.734	270.44
432.956	256.44
433.178	275.44
433.4	259.44
433.622	241.44
433.844	263.44
434.066	276.44
434.287	242.44
434.509	275.44
434.731	294.44
434.953	292.44
435.175	287.44
435.397	287.44
435.618	270.44
435.84	264.44
436.062	260.44
436.284	266.44
436.505	274.44
436.727	263.44
436.949	252.44
437.17	266.44
437.392	259.44
437.614	249.44
437.835	235.44
438.057	258.44
438.278	249.44
438.5	234.44
438.721	253.44
438.943	253.44
439.165	252.44
439.386	255.44
439.608	266.44
439.829	268.44
440.05	272.44
440.272	266.44
440.493	254.44
440.715	279.44
440.936	266.44
441.158	271.44
441.379	260.44
441.6	304.44
441.822	300.44
442.043	301.44
442.264	276.44
442.486	282.44
442.707	297.44
442.928	265.44
443.149	280.44
443.371	292.44
443.592	279.44
443.813	277.44
444.034	300.44
444.255	301.44
444.476	306.44
444.698	341.44
444.919	340.44
445.14	457.44
445.361	369.44
445.582	295.44
445.803	277.44
446.024	277.44
446.245	272.44
446.466	281.44
446.687	275.44
446.908	258.44
447.129	254.44
447.35	258.44
447.571	268.44
447.792	249.44
448.013	233.44
448.234	234.44
448.455	249.44
448.675	246.44
448.896	236.44
449.117	261.44
449.338	234.44
449.559	258.44
449.779	224.44
450	260.44
450.221	272.44
450.442	259.44
450.662	245.44
450.883	254.44
451.104	259.44
451.324	250.44
451.545	266.44
451.766	258.44
451.986	250.44
452.207	242.44
452.428	238.44
452.648	252.44
452.869	236.44
453.089	237.44
453.31	236.44
453.53	249.44
453.751	239.44
453.971	249.44
454.192	253.44
454.412	222.44
454.633	245.44
454.853	233.44
455.073	221.44
455.294	218.44
455.514	231.44
455.734	239.44
455.955	222.44
456.175	218.44
456.395	245.44
456.616	219.44
456.836	239.44
457.056	246.44
457.276	222.44
457.497	243.44
457.717	228.44
457.937	238.44
458.157	247.44
458.377	231.44
458.598	248.44
458.818	247.44
459.038	256.44
459.258	266.44
459.478	256.44
459.698	261.44
459.918	277.44
460.138	294.44
460.358	291.44
460.578	297.44
460.798	297.44
461.018	325.44
461.238	300.44
461.458	298.44
461.678	312.44
461.898	330.44
462.118	320.44
462.338	317.44
462.558	325.44
462.777	317.44
462.997	351.44
463.217	406.44
463.437	390.44
463.657	355.44
463.876	334.44
464.096	331.44
464.316	350.44
464.536	348.44
464.755	335.44
464.975	325.44
465.195	317.44
465.414	296.44
465.634	279.44
465.854	259.44
466.073	260.44
466.293	268.44
466.512	258.44
466.732	257.44
466.951	276.44
467.171	257.44
467.391	243.44
467.61	249.44
467.829	255.44
468.049	250.44
468.268	249.44
468.488	243.44
468.707	257.44
468.927	240.44
469.146	254.44
469.365	266.44
469.585	231.44
469.804	283.44
470.023	277.44
470.243	272.44
470.462	274.44
470.681	264.44
470.901	273.44
471.12	262.44
471.339	266.44
471.558	272.44
471.777	265.44
471.997	257.44
472.216	257.44
472.435	252.44
472.654	251.44
472.873	231.44
473.092	243.44
473.311	239.44
473.53	258.44
473.749	249.44
473.968	244.44
474.187	235.44
474.406	235.44
474.625	247.44
474.844	237.44
475.063	266.44
475.282	246.44
475.501	263.44
475.72	251.44
475.939	249.44
476.158	249.44
476.377	254.44
476.596	267.44
476.814	242.44
477.033	268.44
477.252	253.44
477.471	275.44
477.69	270.44
477.908	289.44
478.127	285.44
478.346	300.44
478.564	282.44
478.783	289.44
479.002	289.44
479.22	308.44
479.439	302.44
479.658	292.44
479.876	291.44
480.095	271.44
480.313	312.44
480.532	321.44
480.751	326.44
480.969	303.44
481.188	285.44
481.406	275.44
481.624	291.44
481.843	276.44
482.061	275.44
482.28	310.44
482.498	283.44
482.717	276.44
482.935	276.44
483.153	270.44
483.372	281.44
483.59	283.44
483.808	285.44
484.027	282.44
484.245	276.44
484.463	282.44
484.681	280.44
484.9	278.44
485.118	291.44
485.336	292.44
485.554	311.44
485.772	318.44
485.99	310.44
486.209	297.44
486.427	302.44
486.645	284.44
486.863	307.44
487.081	305.44
487.299	307.44
487.517	305.44
487.735	290.44
487.953	279.44
488.171	301.44
488.389	277.44
488.607	294.44
488.825	299.44
489.043	293.44
489.261	275.44
489.479	297.44
489.696	302.44
489.914	292.44
490.132	296.44
490.35	306.44
490.568	297.44
490.786	307.44
491.003	310.44
491.221	291.44
491.439	289.44
491.657	290.44
491.874	303.44
492.092	301.44
492.31	328.44
492.527	294.44
492.745	306.44
492.963	315.44
493.18	308.44
493.398	284.44
493.615	315.44
493.833	309.44
494.05	300.44
494.268	313.44
494.485	309.44
494.703	314.44
494.92	301.44
495.138	294.44
495.355	326.44
495.573	303.44
495.79	298.44
496.008	307.44
496.225	319.44
496.442	315.44
496.66	329.44
496.877	332.44
497.094	320.44
497.312	312.44
497.529	313.44
497.746	324.44
497.963	338.44
498.181	345.44
498.398	381.44
498.615	389.44
498.832	418.44
499.049	427.44
499.267	453.44
499.484	510.44
499.701	549.44
499.918	600.44
500.135	693.44
500.352	808.44
500.569	872.44
500.786	851.44
501.003	797.44
501.22	707.44
501.437	612.44
501.654	549.44
501.871	511.44
502.088	442.44
502.305	434.44
502.522	413.44
502.739	385.44
502.956	383.44
503.172	356.44
503.389	355.44
503.606	343.44
503.823	330.44
504.04	329.44
504.256	346.44
504.473	341.44
504.69	373.44
504.907	358.44
505.123	352.44
505.34	314.44
505.557	307.44
505.773	303.44
505.99	298.44
506.207	298.44
506.423	283.44
506.64	288.44
506.856	295.44
507.073	281.44
507.289	282.44
507.506	292.44
507.722	269.44
507.939	286.44
508.155	279.44
508.372	270.44
508.588	278.44
508.805	268.44
509.021	260.44
509.238	279.44
509.454	276.44
509.67	274.44
509.887	256.44
510.103	268.44
510.319	270.44
510.536	248.44
510.752	267.44
510.968	245.44
511.184	259.44
511.401	257.44
511.617	260.44
511.833	270.44
512.049	262.44
512.265	243.44
512.481	273.44
512.698	281.44
512.914	260.44
513.13	266.44
513.346	252.44
513.562	263.44
513.778	256.44
513.994	267.44
514.21	261.44
514.426	268.44
514.642	268.44
514.858	284.44
515.074	277.44
515.29	263.44
515.506	282.44
515.721	276.44
515.937	286.44
516.153	278.44
516.369	297.44
516.585	302.44
516.801	302.44
517.016	307.44
517.232	320.44
517.448	343.44
517.664	337.44
517.879	333.44
518.095	350.44
518.311	355.44
518.527	350.44
518.742	320.44
518.958	299.44
519.173	297.44
519.389	305.44
519.605	279.44
519.82	284.44
520.036	282.44
520.251	281.44
520.467	273.44
520.682	261.44
520.898	276.44
521.113	261.44
521.329	267.44
521.544	262.44
521.76	247.44
521.975	259.44
522.19	268.44
522.406	255.44
522.621	269.44
522.836	257.44
523.052	258.44
523.267	248.44
523.482	259.44
523.698	249.44
523.913	233.44
524.128	246.44
524.343	247.44
524.559	255.44
524.774	264.44
524.989	243.44
525.204	256.44
525.419	253.44
525.634	242.44
525.849	261.44
526.064	239.44
526.28	248.44
526.495	232.44
526.71	251.44
526.925	250.44
527.14	243.44
527.355	250.44
527.57	247.44
527.785	254.44
527.999	241.44
528.214	253.44
528.429	230.44
528.644	241.44
528.859	249.44
529.074	249.44
529.289	231.44
529.503	252.44
529.718	267.44
529.933	274.44
530.148	243.44
530.363	262.44
530.577	226.44
530.792	259.44
531.007	254.44
531.221	240.44
531.436	255.44
531.651	248.44
531.865	248.44
532.08	250.44
532.295	254.44
532.509	246.44
532.724	262.44
532.938	263.44
533.153	272.44
533.367	247.44
533.582	265.44
533.796	270.44
534.011	239.44
534.225	236.44
534.44	238.44
534.654	260.44
534.868	257.44
535.083	257.44
535.297	259.44
535.511	248.44
535.726	249.44
535.94	257.44
536.154	237.44
536.369	231.44
536.583	230.44
536.797	232.44
537.011	252.44
537.225	237.44
537.44	231.44
537.654	231.44
537.868	247.44
538.082	214.44
538.296	219.44
538.51	242.44
538.724	227.44
538.938	233.44
539.153	237.44
539.367	233.44
539.581	245.44
539.795	217.44
540.009	241.44
540.222	234.44
540.436	245.44
540.65	221.44
540.864	227.44
541.078	229.44
541.292	231.44
541.506	234.44
541.72	227.44
541.934	233.44
542.147	229.44
542.361	240.44
542.575	235.44
542.789	239.44
543.002	245.44
543.216	241.44
543.43	238.44
543.644	223.44
543.857	221.44
544.071	231.44
544.285	236.44
544.498	248.44
544.712	230.44
544.925	253.44
545.139	251.44
545.352	236.44
545.566	237.44
545.779	228.44
545.993	225.44
546.206	277.44
546.42	231.44
546.633	229.44
546.847	247.44
547.06	266.44
547.274	231.44
547.487	245.44
547.7	226.44
547.914	259.44
548.127	236.44
548.34	237.44
548.554	236.44
548.767	235.44
548.98	235.44
549.193	235.44
549.407	255.44
549.62	257.44
549.833	254.44
550.046	245.44
550.259	223.44
550.473	234.44
550.686	239.44
550.899	246.44
551.112	215.44
551.325	229.44
551.538	229.44
551.751	235.44
551.964	226.44
552.177	227.44
552.39	250.44
552.603	243.44
552.816	249.44
553.029	258.44
553.242	252.44
553.455	259.44
553.667	265.44
553.88	258.44
554.093	251.44
554.306	254.44
554.519	240.44
554.732	231.44
554.944	257.44
555.157	225.44
555.37	220.44
555.583	236.44
555.795	237.44
556.008	241.44
556.221	231.44
556.433	244.44
556.646	229.44
556.859	228.44
557.071	221.44
557.284	218.44
557.496	211.44
557.709	207.44
557.921	218.44
558.134	196.44
558.346	214.44
558.559	199.44
558.771	227.44
558.984	209.44
559.196	233.44
559.409	210.44
559.621	211.44
559.833	206.44
560.046	207.44
560.258	212.44
560.47	226.44
560.683	205.44
560.895	216.44
561.107	205.44
561.32	215.44
561.532	214.44
561.744	205.44
561.956	195.44
562.168	218.44
562.381	201.44
562.593	209.44
562.805	213.44
563.017	217.44
563.229	201.44
563.441	217.44
563.653	216.44
563.865	206.44
564.077	210.44
564.289	195.44
564.501	225.44
564.713	228.44
564.925	213.44
565.137	225.44
565.349	215.44
565.561	249.44
565.773	244.44
565.985	238.44
566.197	276.44
566.408	302.44
566.62	286.44
566.832	332.44
567.044	324.44
567.255	303.44
567.467	318.44
567.679	335.44
567.891	376.44
568.102	387.44
568.314	384.44
568.526	341.44
568.737	317.44
568.949	287.44
569.161	261.44
569.372	241.44
569.584	229.44
569.795	228.44
570.007	220.44
570.218	225.44
570.43	217.44
570.641	230.44
570.853	228.44
571.064	212.44
571.276	214.44
571.487	218.44
571.698	206.44
571.91	203.44
572.121	203.44
572.333	219.44
572.544	212.44
572.755	196.44
572.966	183.44
573.178	193.44
573.389	191.44
573.6	194.44
573.811	201.44
574.023	190.44
574.234	187.44
574.445	201.44
574.656	188.44
574.867	190.44
575.078	181.44
575.289	207.44
575.501	183.44
575.712	171.44
575.923	175.44
576.134	196.44
576.345	195.44
576.556	184.44
576.767	187.44
576.978	181.44
577.188	187.44
577.399	184.44
577.61	185.44
577.821	185.44
578.032	180.44
578.243	183.44
578.454	180.44
578.665	173.44
578.875	171.44
579.086	189.44
579.297	179.44
579.508	186.44
579.718	175.44
579.929	161.44
580.14	173.44
580.35	190.44
580.561	195.44
580.772	177.44
580.982	170.44
581.193	169.44
581.403	174.44
581.614	173.44
581.825	173.44
582.035	159.44
582.246	183.44
582.456	168.44
582.667	178.44
582.877	165.44
583.087	185.44
583.298	173.44
583.508	169.44
583.719	174.44
583.929	190.44
584.139	158.44
584.35	166.44
584.56	169.44
584.77	174.44
584.981	164.44
585.191	164.44
585.401	165.44
585.611	171.44
585.821	187.44
586.032	171.44
586.242	160.44
586.452	171.44
586.662	175.44
586.872	169.44
587.082	172.44
587.292	181.44
587.502	163.44
587.713	177.44
587.923	182.44
588.133	179.44
588.343	172.44
588.553	167.44
588.762	157.44
588.972	146.44
589.182	179.44
589.392	191.44
589.602	166.44
589.812	172.44
590.022	174.44
590.232	175.44
590.441	184.44
590.651	175.44
590.861	186.44
591.071	186.44
591.281	184.44
591.49	173.44
591.7	180.44
591.91	168.44
592.119	174.44
592.329	182.44
592.539	186.44
592.748	193.44
592.958	204.44
593.167	193.44
593.377	205.44
593.587	211.44
593.796	213.44
594.006	205.44
594.215	207.44
594.424	222.44
594.634	225.44
594.843	196.44
595.053	189.44
595.262	165.44
595.472	185.44
595.681	192.44
595.89	198.44
596.1	163.44
596.309	161.44
596.518	167.44
596.727	159.44
596.937	173.44
597.146	177.44
597.355	175.44
597.564	165.44
597.774	154.44
597.983	167.44
598.192	148.44
598.401	167.44
598.61	153.44
598.819	151.44
599.028	157.44
599.237	153.44
599.446	159.44
599.655	158.44
599.864	161.44
600.073	159.44
600.282	153.44
600.491	165.44
600.7	155.44
600.909	151.44
601.118	145.44
601.327	158.44
601.536	165.44
601.745	175.44
601.953	165.44
602.162	143.44
602.371	143.44
602.58	147.44
602.789	153.44
602.997	136.44
603.206	166.44
603.415	152.44
603.623	145.44
603.832	161.44
604.041	159.44
604.249	149.44
604.458	157.44
604.666	149.44
604.875	154.44
605.084	147.44
605.292	144.44
605.501	164.44
605.709	155.44
605.918	157.44
606.126	146.44
606.334	151.44
606.543	131.44
606.751	173.44
606.96	142.44
607.168	137.44
607.376	149.44
607.585	139.44
607.793	141.44
608.001	133.44
608.21	137.44
608.418	152.44
608.626	161.44
608.834	142.44
609.043	131.44
609.251	153.44
609.459	141.44
609.667	162.44
609.875	145.44
610.083	155.44
610.291	147.44
610.499	149.44
610.707	136.44
610.916	154.44
611.124	141.44
611.332	137.44
611.54	138.44
611.748	135.44
611.955	138.44
612.163	159.44
612.371	159.44
612.579	150.44
612.787	133.44
612.995	161.44
613.203	146.44
613.411	141.44
613.618	142.44
613.826	149.44
614.034	141.44
614.242	140.44
614.449	138.44
614.657	134.44
614.865	134.44
615.072	144.44
615.28	148.44
615.488	143.44
615.695	137.44
615.903	143.44
616.111	140.44
616.318	166.44
616.526	142.44
616.733	135.44
616.941	139.44
617.148	157.44
617.356	156.44
617.563	135.44
617.771	158.44
617.978	149.44
618.185	142.44
618.393	151.44
618.6	137.44
618.807	146.44
619.015	143.44
619.222	144.44
619.429	137.44
619.637	145.44
619.844	154.44
620.051	136.44
620.258	127.44
620.466	119.44
620.673	138.44
620.88	135.44
621.087	129.44
621.294	141.44
621.501	132.44
621.708	144.44
621.915	141.44
622.122	138.44
622.329	162.44
622.536	139.44
622.743	142.44
622.95	135.44
623.157	125.44
623.364	149.44
623.571	126.44
623.778	135.44
623.985	139.44
624.192	119.44
624.399	141.44
624.606	153.44
624.812	137.44
625.019	135.44
625.226	140.44
625.433	147.44
625.639	133.44
625.846	129.44
626.053	140.44
626.259	122.44
626.466	129.44
626.673	136.44
626.879	135.44
627.086	154.44
627.293	127.44
627.499	139.44
627.706	132.44
627.912	139.44
628.119	133.44
628.325	134.44
628.532	126.44
628.738	131.44
628.945	129.44
629.151	139.44
629.357	128.44
629.564	151.44
629.77	116.44
629.976	132.44
630.183	120.44
630.389	124.44
630.595	122.44
630.802	132.44
631.008	134.44
631.214	127.44
631.42	142.44
631.627	127.44
631.833	131.44
632.039	125.44
632.245	121.44
632.451	138.44
632.657	129.44
632.863	123.44
633.069	118.44
633.275	131.44
633.481	127.44
633.688	127.44
633.893	125.44
634.099	123.44
634.305	121.44
634.511	114.44
634.717	127.44
634.923	120.44
635.129	119.44
635.335	116.44
635.541	113.44
635.747	127.44
635.952	130.44
636.158	124.44
636.364	139.44
636.57	127.44
636.775	131.44
636.981	147.44
637.187	121.44
637.392	127.44
637.598	130.44
637.804	120.44
638.009	135.44
638.215	116.44
638.421	117.44
638.626	118.44
638.832	127.44
639.037	106.44
639.243	117.44
639.448	123.44
639.654	111.44
639.859	103.44
640.065	107.44
640.27	117.44
640.475	111.44
640.681	121.44
640.886	106.44
641.091	117.44
641.297	125.44
641.502	121.44
641.707	110.44
641.913	121.44
642.118	119.44
642.323	123.44
642.528	133.44
642.733	125.44
642.939	116.44
643.144	126.44
643.349	117.44
643.554	129.44
643.759	111.44
643.964	101.44
644.169	119.44
644.374	118.44
644.579	117.44
644.784	129.44
644.989	129.44
645.194	111.44
645.399	122.44
645.604	121.44
645.809	113.44
646.014	127.44
646.219	122.44
646.423	125.44
646.628	115.44
646.833	125.44
647.038	129.44
647.243	136.44
647.447	109.44
647.652	127.44
647.857	132.44
648.062	115.44
648.266	133.44
648.471	127.44
648.676	131.44
648.88	117.44
649.085	117.44
649.289	110.44
649.494	109.44
649.698	125.44
649.903	108.44
650.107	113.44
650.312	127.44
650.516	113.44
650.721	117.44
650.925	123.44
651.13	120.44
651.334	102.44
651.539	118.44
651.743	111.44
651.947	121.44
652.152	119.44
652.356	122.44
652.56	106.44
652.764	105.44
652.969	123.44
653.173	111.44
653.377	109.44
653.581	111.44
653.785	106.44
653.99	116.44
654.194	123.44
654.398	121.44
654.602	118.44
654.806	97.44
655.01	107.44
655.214	106.44
655.418	113.44
655.622	110.44
655.826	116.44
656.03	126.44
656.234	120.44
656.438	123.44
656.642	106.44
656.846	108.44
657.049	106.44
657.253	101.44
657.457	99.44
657.661	100.44
657.865	109.44
658.068	90.44
658.272	102.44
658.476	83.44
658.68	95.44
658.883	93.44
659.087	85.44
659.291	96.44
659.494	93.44
659.698	96.44
659.901	91.44
660.105	86.44
660.309	98.44
660.512	81.44
660.716	89.44
660.919	95.44
661.123	86.44
661.326	78.44
661.53	88.44
661.733	89.44
661.936	89.44
662.14	95.44
662.343	83.44
662.546	92.44
662.75	69.44
662.953	84.44
663.156	95.44
663.36	93.44
663.563	87.44
663.766	88.44
663.969	86.44
664.173	68.44
664.376	97.44
664.579	83.44
664.782	78.44
664.985	81.44
665.188	78.44
665.391	78.44
665.594	87.44
665.797	92.44
666	86.44
666.203	88.44
666.406	73.44
666.609	82.44
666.812	93.44
667.015	100.44
667.218	92.44
667.421	75.44
667.624	85.44
667.827	81.44
668.03	91.44
668.232	82.44
668.435	82.44
668.638	86.44
668.841	90.44
669.043	84.44
669.246	91.44
669.449	91.44
669.651	107.44
669.854	88.44
670.057	90.44
670.259	89.44
670.462	98.44
670.665	85.44
670.867	96.44
671.07	86.44
671.272	92.44
671.475	77.44
671.677	83.44
671.88	84.44
672.082	85.44
672.284	84.44
672.487	93.44
672.689	83.44
672.892	71.44
