Data from Fe(NO3)3@0.025M.TitratingCurve.Agarose3%dH2O.NegLispCup.LampEnergy10.LIBS07252019_HRD10591_16-54-27-335.txt Node
Date: Thu Jul 25 16:54:27 EDT 2019
User: cochatt
Spectrometer: HR+D1059
Trigger mode: 1
Integration Time (sec): 1.000000E-1
Scans to average: 1
Electric dark correction enabled: true
Nonlinearity correction enabled: false
Boxcar width: 0
XAxis mode: Wavelengths
Number of Pixels in Spectrum: 2048
>>>>>Begin Spectral Data<<<<<
223.165	-12.19
223.4	-12.19
223.635	-12.19
223.869	-27.19
224.104	-18.19
224.338	-13.19
224.573	-16.19
224.808	-20.19
225.042	8.81
225.277	-20.19
225.511	-1.19
225.746	10.81
225.98	1.81
226.215	1.81
226.449	13.81
226.683	20.81
226.918	37.81
227.152	32.81
227.387	36.81
227.621	26.81
227.856	34.81
228.09	46.81
228.324	50.81
228.559	56.81
228.793	62.81
229.027	83.81
229.262	87.81
229.496	86.81
229.73	90.81
229.964	92.81
230.199	92.81
230.433	106.81
230.667	93.81
230.901	113.81
231.136	105.81
231.37	110.81
231.604	106.81
231.838	98.81
232.072	110.81
232.306	110.81
232.541	110.81
232.775	95.81
233.009	110.81
233.243	100.81
233.477	97.81
233.711	101.81
233.945	103.81
234.179	101.81
234.413	115.81
234.647	111.81
234.881	101.81
235.115	97.81
235.349	107.81
235.583	122.81
235.817	119.81
236.051	115.81
236.285	115.81
236.519	112.81
236.753	98.81
236.987	116.81
237.221	116.81
237.455	110.81
237.689	111.81
237.922	120.81
238.156	119.81
238.39	97.81
238.624	102.81
238.858	98.81
239.091	114.81
239.325	110.81
239.559	119.81
239.793	119.81
240.027	112.81
240.26	117.81
240.494	122.81
240.728	118.81
240.961	126.81
241.195	117.81
241.429	122.81
241.662	116.81
241.896	120.81
242.13	121.81
242.363	112.81
242.597	132.81
242.83	109.81
243.064	112.81
243.298	103.81
243.531	126.81
243.765	120.81
243.998	128.81
244.232	128.81
244.465	123.81
244.699	121.81
244.932	124.81
245.166	146.81
245.399	134.81
245.633	132.81
245.866	123.81
246.099	134.81
246.333	134.81
246.566	128.81
246.8	134.81
247.033	129.81
247.266	133.81
247.5	122.81
247.733	120.81
247.966	130.81
248.2	143.81
248.433	139.81
248.666	125.81
248.899	150.81
249.133	145.81
249.366	151.81
249.599	148.81
249.832	149.81
250.066	154.81
250.299	151.81
250.532	141.81
250.765	140.81
250.998	135.81
251.231	140.81
251.465	142.81
251.698	126.81
251.931	151.81
252.164	146.81
252.397	141.81
252.63	157.81
252.863	145.81
253.096	150.81
253.329	143.81
253.562	153.81
253.795	151.81
254.028	166.81
254.261	154.81
254.494	144.81
254.727	154.81
254.96	149.81
255.193	144.81
255.426	164.81
255.659	155.81
255.892	148.81
256.124	162.81
256.357	150.81
256.59	174.81
256.823	165.81
257.056	146.81
257.289	171.81
257.521	176.81
257.754	190.81
257.987	171.81
258.22	156.81
258.452	177.81
258.685	166.81
258.918	149.81
259.151	156.81
259.383	174.81
259.616	170.81
259.849	174.81
260.081	166.81
260.314	184.81
260.547	174.81
260.779	170.81
261.012	162.81
261.244	197.81
261.477	176.81
261.71	182.81
261.942	174.81
262.175	164.81
262.407	170.81
262.64	177.81
262.872	168.81
263.105	176.81
263.337	192.81
263.57	187.81
263.802	174.81
264.035	187.81
264.267	180.81
264.499	183.81
264.732	181.81
264.964	175.81
265.197	167.81
265.429	181.81
265.661	169.81
265.894	179.81
266.126	178.81
266.358	169.81
266.591	186.81
266.823	198.81
267.055	190.81
267.287	179.81
267.52	180.81
267.752	178.81
267.984	182.81
268.216	190.81
268.448	159.81
268.681	183.81
268.913	185.81
269.145	182.81
269.377	180.81
269.609	198.81
269.841	178.81
270.073	197.81
270.306	185.81
270.538	205.81
270.77	182.81
271.002	189.81
271.234	186.81
271.466	196.81
271.698	193.81
271.93	219.81
272.162	197.81
272.394	204.81
272.626	211.81
272.858	223.81
273.09	217.81
273.322	207.81
273.553	191.81
273.785	203.81
274.017	207.81
274.249	221.81
274.481	223.81
274.713	225.81
274.945	233.81
275.176	232.81
275.408	219.81
275.64	225.81
275.872	226.81
276.104	210.81
276.335	212.81
276.567	222.81
276.799	215.81
277.031	212.81
277.262	223.81
277.494	209.81
277.726	221.81
277.957	221.81
278.189	209.81
278.421	203.81
278.652	224.81
278.884	220.81
279.115	222.81
279.347	208.81
279.579	231.81
279.81	220.81
280.042	218.81
280.273	217.81
280.505	222.81
280.736	215.81
280.968	218.81
281.199	226.81
281.431	216.81
281.662	205.81
281.894	227.81
282.125	215.81
282.356	229.81
282.588	234.81
282.819	228.81
283.051	234.81
283.282	240.81
283.513	246.81
283.745	241.81
283.976	219.81
284.207	221.81
284.439	241.81
284.67	239.81
284.901	230.81
285.132	238.81
285.364	233.81
285.595	233.81
285.826	230.81
286.057	232.81
286.288	253.81
286.52	248.81
286.751	230.81
286.982	238.81
287.213	233.81
287.444	243.81
287.675	235.81
287.906	240.81
288.138	254.81
288.369	258.81
288.6	251.81
288.831	241.81
289.062	244.81
289.293	242.81
289.524	241.81
289.755	251.81
289.986	234.81
290.217	242.81
290.448	260.81
290.679	245.81
290.91	266.81
291.141	253.81
291.371	278.81
291.602	256.81
291.833	234.81
292.064	262.81
292.295	252.81
292.526	261.81
292.757	256.81
292.987	240.81
293.218	253.81
293.449	252.81
293.68	251.81
293.91	262.81
294.141	259.81
294.372	250.81
294.603	256.81
294.833	264.81
295.064	246.81
295.295	254.81
295.525	273.81
295.756	272.81
295.987	267.81
296.217	266.81
296.448	278.81
296.679	259.81
296.909	256.81
297.14	268.81
297.37	264.81
297.601	271.81
297.831	282.81
298.062	243.81
298.292	259.81
298.523	269.81
298.753	282.81
298.984	264.81
299.214	273.81
299.445	276.81
299.675	273.81
299.905	259.81
300.136	274.81
300.366	281.81
300.597	276.81
300.827	270.81
301.057	268.81
301.288	275.81
301.518	276.81
301.748	287.81
301.979	296.81
302.209	286.81
302.439	289.81
302.669	290.81
302.9	298.81
303.13	284.81
303.36	278.81
303.59	276.81
303.82	287.81
304.051	277.81
304.281	280.81
304.511	296.81
304.741	292.81
304.971	267.81
305.201	293.81
305.431	298.81
305.661	286.81
305.891	282.81
306.121	307.81
306.352	280.81
306.582	306.81
306.812	278.81
307.042	276.81
307.272	281.81
307.502	280.81
307.731	278.81
307.961	302.81
308.191	279.81
308.421	313.81
308.651	287.81
308.881	276.81
309.111	288.81
309.341	280.81
309.571	284.81
309.8	302.81
310.03	295.81
310.26	290.81
310.49	317.81
310.72	305.81
310.949	303.81
311.179	281.81
311.409	286.81
311.639	294.81
311.868	278.81
312.098	288.81
312.328	302.81
312.557	310.81
312.787	294.81
313.017	302.81
313.246	303.81
313.476	284.81
313.706	305.81
313.935	288.81
314.165	291.81
314.394	311.81
314.624	312.81
314.853	302.81
315.083	297.81
315.312	306.81
315.542	314.81
315.771	305.81
316.001	314.81
316.23	307.81
316.46	306.81
316.689	297.81
316.919	294.81
317.148	303.81
317.377	314.81
317.607	318.81
317.836	316.81
318.065	312.81
318.295	311.81
318.524	314.81
318.753	313.81
318.983	319.81
319.212	303.81
319.441	324.81
319.67	296.81
319.9	308.81
320.129	320.81
320.358	308.81
320.587	327.81
320.816	313.81
321.046	322.81
321.275	306.81
321.504	309.81
321.733	303.81
321.962	325.81
322.191	316.81
322.42	291.81
322.649	319.81
322.878	343.81
323.108	312.81
323.337	324.81
323.566	341.81
323.795	329.81
324.024	309.81
324.253	328.81
324.482	313.81
324.71	312.81
324.939	321.81
325.168	317.81
325.397	320.81
325.626	315.81
325.855	344.81
326.084	339.81
326.313	335.81
326.542	320.81
326.77	334.81
326.999	337.81
327.228	323.81
327.457	326.81
327.686	339.81
327.914	339.81
328.143	358.81
328.372	332.81
328.6	327.81
328.829	341.81
329.058	346.81
329.287	336.81
329.515	325.81
329.744	327.81
329.972	362.81
330.201	347.81
330.43	340.81
330.658	344.81
330.887	342.81
331.115	335.81
331.344	361.81
331.572	348.81
331.801	357.81
332.03	360.81
332.258	363.81
332.486	356.81
332.715	374.81
332.943	368.81
333.172	367.81
333.4	359.81
333.629	374.81
333.857	395.81
334.085	375.81
334.314	364.81
334.542	398.81
334.771	410.81
334.999	363.81
335.227	376.81
335.455	388.81
335.684	386.81
335.912	396.81
336.14	396.81
336.369	402.81
336.597	394.81
336.825	366.81
337.053	380.81
337.281	378.81
337.51	377.81
337.738	367.81
337.966	380.81
338.194	394.81
338.422	366.81
338.65	356.81
338.878	363.81
339.106	367.81
339.334	354.81
339.562	354.81
339.79	360.81
340.018	372.81
340.246	364.81
340.474	351.81
340.702	342.81
340.93	363.81
341.158	356.81
341.386	363.81
341.614	360.81
341.842	356.81
342.07	350.81
342.298	366.81
342.526	342.81
342.754	347.81
342.981	357.81
343.209	374.81
343.437	370.81
343.665	382.81
343.893	397.81
344.12	385.81
344.348	386.81
344.576	372.81
344.804	374.81
345.031	374.81
345.259	360.81
345.487	362.81
345.714	363.81
345.942	360.81
346.17	354.81
346.397	359.81
346.625	316.81
346.853	350.81
347.08	344.81
347.308	350.81
347.535	350.81
347.763	339.81
347.99	346.81
348.218	327.81
348.445	351.81
348.673	332.81
348.9	326.81
349.128	341.81
349.355	335.81
349.583	335.81
349.81	331.81
350.037	324.81
350.265	347.81
350.492	334.81
350.72	341.81
350.947	335.81
351.174	345.81
351.402	341.81
351.629	322.81
351.856	348.81
352.083	354.81
352.311	330.81
352.538	324.81
352.765	313.81
352.992	344.81
353.22	353.81
353.447	348.81
353.674	343.81
353.901	343.81
354.128	350.81
354.355	338.81
354.583	335.81
354.81	341.81
355.037	359.81
355.264	351.81
355.491	338.81
355.718	340.81
355.945	329.81
356.172	342.81
356.399	334.81
356.626	358.81
356.853	341.81
357.08	351.81
357.307	328.81
357.534	344.81
357.761	345.81
357.988	356.81
358.215	355.81
358.441	338.81
358.668	340.81
358.895	355.81
359.122	351.81
359.349	342.81
359.576	328.81
359.802	355.81
360.029	359.81
360.256	346.81
360.483	354.81
360.709	347.81
360.936	360.81
361.163	350.81
361.39	343.81
361.616	364.81
361.843	357.81
362.07	353.81
362.296	350.81
362.523	348.81
362.749	368.81
362.976	356.81
363.203	344.81
363.429	351.81
363.656	353.81
363.882	345.81
364.109	345.81
364.335	354.81
364.562	347.81
364.788	343.81
365.015	346.81
365.241	358.81
365.468	364.81
365.694	346.81
365.92	361.81
366.147	349.81
366.373	352.81
366.599	337.81
366.826	357.81
367.052	346.81
367.278	359.81
367.505	334.81
367.731	361.81
367.957	352.81
368.184	359.81
368.41	349.81
368.636	359.81
368.862	349.81
369.089	371.81
369.315	328.81
369.541	367.81
369.767	343.81
369.993	341.81
370.219	352.81
370.445	359.81
370.672	360.81
370.898	359.81
371.124	374.81
371.35	387.81
371.576	361.81
371.802	376.81
372.028	375.81
372.254	383.81
372.48	367.81
372.706	373.81
372.932	382.81
373.158	378.81
373.384	368.81
373.61	376.81
373.835	396.81
374.061	364.81
374.287	364.81
374.513	376.81
374.739	396.81
374.965	394.81
375.191	408.81
375.416	387.81
375.642	389.81
375.868	377.81
376.094	390.81
376.319	409.81
376.545	394.81
376.771	382.81
376.997	378.81
377.222	384.81
377.448	367.81
377.674	377.81
377.899	394.81
378.125	380.81
378.35	360.81
378.576	366.81
378.802	376.81
379.027	360.81
379.253	351.81
379.478	359.81
379.704	357.81
379.929	366.81
380.155	368.81
380.38	375.81
380.606	379.81
380.831	374.81
381.057	371.81
381.282	354.81
381.507	366.81
381.733	383.81
381.958	385.81
382.184	395.81
382.409	388.81
382.634	387.81
382.86	413.81
383.085	397.81
383.31	395.81
383.535	393.81
383.761	389.81
383.986	399.81
384.211	418.81
384.436	409.81
384.662	422.81
384.887	396.81
385.112	420.81
385.337	405.81
385.562	407.81
385.787	409.81
386.013	412.81
386.238	430.81
386.463	442.81
386.688	428.81
386.913	422.81
387.138	411.81
387.363	424.81
387.588	433.81
387.813	432.81
388.038	425.81
388.263	434.81
388.488	430.81
388.713	436.81
388.938	420.81
389.163	405.81
389.387	422.81
389.612	399.81
389.837	421.81
390.062	419.81
390.287	416.81
390.512	436.81
390.736	433.81
390.961	428.81
391.186	448.81
391.411	435.81
391.636	456.81
391.86	440.81
392.085	468.81
392.31	467.81
392.534	431.81
392.759	464.81
392.984	439.81
393.208	455.81
393.433	454.81
393.658	461.81
393.882	440.81
394.107	451.81
394.331	440.81
394.556	453.81
394.78	468.81
395.005	449.81
395.229	444.81
395.454	452.81
395.678	468.81
395.903	474.81
396.127	473.81
396.352	458.81
396.576	459.81
396.801	453.81
397.025	451.81
397.249	470.81
397.474	475.81
397.698	481.81
397.922	474.81
398.147	465.81
398.371	491.81
398.595	498.81
398.82	517.81
399.044	517.81
399.268	551.81
399.492	578.81
399.717	597.81
399.941	594.81
400.165	592.81
400.389	562.81
400.613	568.81
400.837	516.81
401.062	518.81
401.286	514.81
401.51	524.81
401.734	518.81
401.958	511.81
402.182	499.81
402.406	512.81
402.63	512.81
402.854	527.81
403.078	516.81
403.302	530.81
403.526	514.81
403.75	514.81
403.974	541.81
404.198	531.81
404.422	530.81
404.645	536.81
404.869	544.81
405.093	528.81
405.317	522.81
405.541	507.81
405.765	523.81
405.988	498.81
406.212	536.81
406.436	528.81
406.66	542.81
406.883	554.81
407.107	576.81
407.331	568.81
407.555	593.81
407.778	601.81
408.002	579.81
408.226	586.81
408.449	572.81
408.673	579.81
408.896	561.81
409.12	542.81
409.344	547.81
409.567	570.81
409.791	543.81
410.014	530.81
410.238	546.81
410.461	547.81
410.685	523.81
410.908	549.81
411.132	528.81
411.355	511.81
411.578	543.81
411.802	518.81
412.025	524.81
412.249	520.81
412.472	538.81
412.695	507.81
412.919	511.81
413.142	523.81
413.365	506.81
413.589	521.81
413.812	515.81
414.035	512.81
414.258	508.81
414.482	512.81
414.705	526.81
414.928	521.81
415.151	520.81
415.374	513.81
415.597	517.81
415.821	503.81
416.044	515.81
416.267	506.81
416.49	491.81
416.713	493.81
416.936	504.81
417.159	489.81
417.382	479.81
417.605	486.81
417.828	484.81
418.051	492.81
418.274	480.81
418.497	476.81
418.72	492.81
418.943	468.81
419.166	499.81
419.389	525.81
419.611	528.81
419.834	517.81
420.057	514.81
420.28	488.81
420.503	467.81
420.726	466.81
420.948	491.81
421.171	488.81
421.394	480.81
421.617	472.81
421.839	490.81
422.062	470.81
422.285	464.81
422.507	472.81
422.73	464.81
422.953	500.81
423.175	494.81
423.398	503.81
423.621	484.81
423.843	502.81
424.066	475.81
424.288	496.81
424.511	488.81
424.733	473.81
424.956	487.81
425.178	481.81
425.401	487.81
425.623	470.81
425.846	478.81
426.068	475.81
426.291	457.81
426.513	446.81
426.735	460.81
426.958	445.81
427.18	439.81
427.402	469.81
427.625	467.81
427.847	470.81
428.069	459.81
428.292	479.81
428.514	457.81
428.736	460.81
428.958	450.81
429.181	439.81
429.403	452.81
429.625	449.81
429.847	449.81
430.069	426.81
430.292	437.81
430.514	448.81
430.736	448.81
430.958	441.81
431.18	449.81
431.402	452.81
431.624	437.81
431.846	454.81
432.068	459.81
432.29	452.81
432.512	460.81
432.734	472.81
432.956	437.81
433.178	459.81
433.4	451.81
433.622	459.81
433.844	451.81
434.066	463.81
434.287	442.81
434.509	473.81
434.731	460.81
434.953	480.81
435.175	482.81
435.397	491.81
435.618	447.81
435.84	461.81
436.062	459.81
436.284	447.81
436.505	459.81
436.727	460.81
436.949	439.81
437.17	457.81
437.392	436.81
437.614	440.81
437.835	419.81
438.057	432.81
438.278	430.81
438.5	445.81
438.721	423.81
438.943	432.81
439.165	445.81
439.386	437.81
439.608	447.81
439.829	427.81
440.05	444.81
440.272	440.81
440.493	460.81
440.715	446.81
440.936	458.81
441.158	475.81
441.379	473.81
441.6	477.81
441.822	471.81
442.043	472.81
442.264	466.81
442.486	473.81
442.707	441.81
442.928	456.81
443.149	462.81
443.371	468.81
443.592	473.81
443.813	465.81
444.034	464.81
444.255	463.81
444.476	484.81
444.698	510.81
444.919	524.81
445.14	626.81
445.361	514.81
445.582	481.81
445.803	471.81
446.024	465.81
446.245	451.81
446.466	460.81
446.687	440.81
446.908	450.81
447.129	433.81
447.35	444.81
447.571	425.81
447.792	412.81
448.013	419.81
448.234	419.81
448.455	414.81
448.675	435.81
448.896	426.81
449.117	409.81
449.338	399.81
449.559	399.81
449.779	396.81
450	409.81
450.221	430.81
450.442	416.81
450.662	421.81
450.883	410.81
451.104	424.81
451.324	413.81
451.545	424.81
451.766	410.81
451.986	411.81
452.207	396.81
452.428	418.81
452.648	389.81
452.869	389.81
453.089	383.81
453.31	409.81
453.53	375.81
453.751	415.81
453.971	407.81
454.192	424.81
454.412	420.81
454.633	386.81
454.853	410.81
455.073	410.81
455.294	407.81
455.514	385.81
455.734	396.81
455.955	387.81
456.175	407.81
456.395	393.81
456.616	388.81
456.836	408.81
457.056	409.81
457.276	378.81
457.497	390.81
457.717	392.81
457.937	375.81
458.157	406.81
458.377	394.81
458.598	418.81
458.818	422.81
459.038	444.81
459.258	440.81
459.478	449.81
459.698	464.81
459.918	470.81
460.138	435.81
460.358	476.81
460.578	468.81
460.798	477.81
461.018	496.81
461.238	486.81
461.458	505.81
461.678	497.81
461.898	495.81
462.118	499.81
462.338	521.81
462.558	528.81
462.777	536.81
462.997	544.81
463.217	556.81
463.437	555.81
463.657	543.81
463.876	539.81
464.096	528.81
464.316	508.81
464.536	547.81
464.755	531.81
464.975	500.81
465.195	499.81
465.414	482.81
465.634	478.81
465.854	462.81
466.073	467.81
466.293	481.81
466.512	429.81
466.732	431.81
466.951	415.81
467.171	421.81
467.391	449.81
467.61	446.81
467.829	424.81
468.049	451.81
468.268	402.81
468.488	414.81
468.707	400.81
468.927	415.81
469.146	414.81
469.365	419.81
469.585	412.81
469.804	417.81
470.023	434.81
470.243	454.81
470.462	460.81
470.681	452.81
470.901	446.81
471.12	439.81
471.339	434.81
471.558	442.81
471.777	442.81
471.997	427.81
472.216	436.81
472.435	397.81
472.654	428.81
472.873	426.81
473.092	427.81
473.311	424.81
473.53	425.81
473.749	421.81
473.968	438.81
474.187	431.81
474.406	424.81
474.625	442.81
474.844	421.81
475.063	441.81
475.282	431.81
475.501	437.81
475.72	440.81
475.939	429.81
476.158	439.81
476.377	459.81
476.596	452.81
476.814	432.81
477.033	454.81
477.252	471.81
477.471	476.81
477.69	479.81
477.908	487.81
478.127	507.81
478.346	479.81
478.564	467.81
478.783	465.81
479.002	500.81
479.22	498.81
479.439	523.81
479.658	508.81
479.876	492.81
480.095	521.81
480.313	497.81
480.532	504.81
480.751	528.81
480.969	515.81
481.188	519.81
481.406	505.81
481.624	502.81
481.843	489.81
482.061	514.81
482.28	485.81
482.498	474.81
482.717	494.81
482.935	515.81
483.153	503.81
483.372	467.81
483.59	475.81
483.808	493.81
484.027	502.81
484.245	480.81
484.463	498.81
484.681	506.81
484.9	498.81
485.118	509.81
485.336	504.81
485.554	514.81
485.772	515.81
485.99	515.81
486.209	530.81
486.427	487.81
486.645	502.81
486.863	512.81
487.081	527.81
487.299	532.81
487.517	511.81
487.735	506.81
487.953	495.81
488.171	518.81
488.389	502.81
488.607	498.81
488.825	523.81
489.043	503.81
489.261	517.81
489.479	512.81
489.696	529.81
489.914	511.81
490.132	494.81
490.35	485.81
490.568	512.81
490.786	530.81
491.003	521.81
491.221	518.81
491.439	514.81
491.657	506.81
491.874	516.81
492.092	523.81
492.31	524.81
492.527	522.81
492.745	534.81
492.963	501.81
493.18	538.81
493.398	530.81
493.615	527.81
493.833	522.81
494.05	510.81
494.268	538.81
494.485	539.81
494.703	543.81
494.92	524.81
495.138	548.81
495.355	549.81
495.573	542.81
495.79	534.81
496.008	560.81
496.225	562.81
496.442	591.81
496.66	578.81
496.877	574.81
497.094	570.81
497.312	578.81
497.529	588.81
497.746	594.81
497.963	615.81
498.181	617.81
498.398	650.81
498.615	694.81
498.832	690.81
499.049	726.81
499.267	745.81
499.484	811.81
499.701	829.81
499.918	868.81
500.135	918.81
500.352	964.81
500.569	991.81
500.786	1007.81
501.003	985.81
501.22	913.81
501.437	889.81
501.654	832.81
501.871	756.81
502.088	736.81
502.305	709.81
502.522	711.81
502.739	667.81
502.956	658.81
503.172	633.81
503.389	611.81
503.606	601.81
503.823	603.81
504.04	591.81
504.256	602.81
504.473	561.81
504.69	596.81
504.907	583.81
505.123	555.81
505.34	539.81
505.557	542.81
505.773	536.81
505.99	504.81
506.207	511.81
506.423	514.81
506.64	496.81
506.856	498.81
507.073	487.81
507.289	488.81
507.506	491.81
507.722	470.81
507.939	459.81
508.155	464.81
508.372	472.81
508.588	472.81
508.805	458.81
509.021	455.81
509.238	436.81
509.454	463.81
509.67	454.81
509.887	449.81
510.103	440.81
510.319	442.81
510.536	455.81
510.752	451.81
510.968	449.81
511.184	429.81
511.401	421.81
511.617	434.81
511.833	441.81
512.049	426.81
512.265	433.81
512.481	425.81
512.698	435.81
512.914	445.81
513.13	445.81
513.346	439.81
513.562	441.81
513.778	447.81
513.994	453.81
514.21	425.81
514.426	443.81
514.642	444.81
514.858	466.81
515.074	449.81
515.29	441.81
515.506	452.81
515.721	474.81
515.937	470.81
516.153	463.81
516.369	456.81
516.585	466.81
516.801	483.81
517.016	487.81
517.232	484.81
517.448	501.81
517.664	500.81
517.879	511.81
518.095	534.81
518.311	513.81
518.527	501.81
518.742	494.81
518.958	480.81
519.173	484.81
519.389	467.81
519.605	446.81
519.82	455.81
520.036	457.81
520.251	456.81
520.467	468.81
520.682	419.81
520.898	415.81
521.113	407.81
521.329	417.81
521.544	436.81
521.76	423.81
521.975	410.81
522.19	451.81
522.406	398.81
522.621	426.81
522.836	403.81
523.052	404.81
523.267	395.81
523.482	404.81
523.698	401.81
523.913	399.81
524.128	415.81
524.343	419.81
524.559	410.81
524.774	390.81
524.989	380.81
525.204	401.81
525.419	390.81
525.634	406.81
525.849	387.81
526.064	402.81
526.28	399.81
526.495	399.81
526.71	416.81
526.925	404.81
527.14	400.81
527.355	382.81
527.57	390.81
527.785	367.81
527.999	388.81
528.214	403.81
528.429	388.81
528.644	391.81
528.859	394.81
529.074	387.81
529.289	386.81
529.503	402.81
529.718	403.81
529.933	391.81
530.148	393.81
530.363	392.81
530.577	389.81
530.792	378.81
531.007	397.81
531.221	396.81
531.436	388.81
531.651	400.81
531.865	391.81
532.08	383.81
532.295	386.81
532.509	378.81
532.724	376.81
532.938	382.81
533.153	382.81
533.367	395.81
533.582	386.81
533.796	386.81
534.011	387.81
534.225	389.81
534.44	376.81
534.654	383.81
534.868	387.81
535.083	375.81
535.297	390.81
535.511	372.81
535.726	379.81
535.94	367.81
536.154	360.81
536.369	382.81
536.583	377.81
536.797	360.81
537.011	367.81
537.225	374.81
537.44	365.81
537.654	363.81
537.868	374.81
538.082	374.81
538.296	364.81
538.51	368.81
538.724	383.81
538.938	367.81
539.153	375.81
539.367	360.81
539.581	356.81
539.795	360.81
540.009	356.81
540.222	380.81
540.436	369.81
540.65	354.81
540.864	366.81
541.078	342.81
541.292	359.81
541.506	367.81
541.72	330.81
541.934	345.81
542.147	368.81
542.361	361.81
542.575	355.81
542.789	364.81
543.002	346.81
543.216	360.81
543.43	354.81
543.644	354.81
543.857	354.81
544.071	363.81
544.285	355.81
544.498	351.81
544.712	367.81
544.925	356.81
545.139	359.81
545.352	371.81
545.566	354.81
545.779	384.81
545.993	381.81
546.206	370.81
546.42	348.81
546.633	362.81
546.847	356.81
547.06	377.81
547.274	373.81
547.487	377.81
547.7	362.81
547.914	359.81
548.127	362.81
548.34	366.81
548.554	372.81
548.767	354.81
548.98	368.81
549.193	355.81
549.407	344.81
549.62	373.81
549.833	371.81
550.046	349.81
550.259	349.81
550.473	364.81
550.686	352.81
550.899	368.81
551.112	350.81
551.325	359.81
551.538	355.81
551.751	350.81
551.964	357.81
552.177	371.81
552.39	362.81
552.603	341.81
552.816	357.81
553.029	370.81
553.242	343.81
553.455	374.81
553.667	376.81
553.88	364.81
554.093	368.81
554.306	343.81
554.519	337.81
554.732	368.81
554.944	322.81
555.157	333.81
555.37	350.81
555.583	334.81
555.795	337.81
556.008	324.81
556.221	329.81
556.433	350.81
556.646	341.81
556.859	325.81
557.071	319.81
557.284	317.81
557.496	341.81
557.709	320.81
557.921	310.81
558.134	310.81
558.346	305.81
558.559	315.81
558.771	314.81
558.984	305.81
559.196	302.81
559.409	298.81
559.621	304.81
559.833	327.81
560.046	307.81
560.258	299.81
560.47	306.81
560.683	299.81
560.895	295.81
561.107	312.81
561.32	292.81
561.532	298.81
561.744	302.81
561.956	298.81
562.168	308.81
562.381	318.81
562.593	320.81
562.805	321.81
563.017	311.81
563.229	305.81
563.441	318.81
563.653	315.81
563.865	322.81
564.077	318.81
564.289	327.81
564.501	315.81
564.713	315.81
564.925	339.81
565.137	322.81
565.349	352.81
565.561	333.81
565.773	351.81
565.985	359.81
566.197	357.81
566.408	387.81
566.62	394.81
566.832	395.81
567.044	403.81
567.255	403.81
567.467	408.81
567.679	406.81
567.891	415.81
568.102	418.81
568.314	422.81
568.526	373.81
568.737	376.81
568.949	375.81
569.161	361.81
569.372	340.81
569.584	326.81
569.795	318.81
570.007	308.81
570.218	332.81
570.43	315.81
570.641	308.81
570.853	330.81
571.064	319.81
571.276	297.81
571.487	292.81
571.698	284.81
571.91	319.81
572.121	296.81
572.333	289.81
572.544	253.81
572.755	270.81
572.966	276.81
573.178	270.81
573.389	289.81
573.6	266.81
573.811	269.81
574.023	271.81
574.234	277.81
574.445	265.81
574.656	266.81
574.867	253.81
575.078	259.81
575.289	258.81
575.501	265.81
575.712	240.81
575.923	256.81
576.134	260.81
576.345	240.81
576.556	241.81
576.767	235.81
576.978	262.81
577.188	244.81
577.399	246.81
577.61	258.81
577.821	240.81
578.032	243.81
578.243	258.81
578.454	246.81
578.665	235.81
578.875	252.81
579.086	257.81
579.297	228.81
579.508	240.81
579.718	238.81
579.929	255.81
580.14	223.81
580.35	226.81
580.561	223.81
580.772	233.81
580.982	230.81
581.193	249.81
581.403	231.81
581.614	225.81
581.825	246.81
582.035	223.81
582.246	231.81
582.456	214.81
582.667	229.81
582.877	232.81
583.087	229.81
583.298	235.81
583.508	226.81
583.719	229.81
583.929	223.81
584.139	212.81
584.35	223.81
584.56	230.81
584.77	229.81
584.981	254.81
585.191	223.81
585.401	238.81
585.611	215.81
585.821	208.81
586.032	217.81
586.242	217.81
586.452	215.81
586.662	218.81
586.872	249.81
587.082	216.81
587.292	215.81
587.502	226.81
587.713	212.81
587.923	218.81
588.133	215.81
588.343	216.81
588.553	215.81
588.762	218.81
588.972	203.81
589.182	227.81
589.392	229.81
589.602	223.81
589.812	245.81
590.022	214.81
590.232	224.81
590.441	209.81
590.651	204.81
590.861	232.81
591.071	233.81
591.281	208.81
591.49	216.81
591.7	217.81
591.91	234.81
592.119	239.81
592.329	230.81
592.539	240.81
592.748	250.81
592.958	232.81
593.167	247.81
593.377	248.81
593.587	236.81
593.796	238.81
594.006	246.81
594.215	243.81
594.424	242.81
594.634	240.81
594.843	228.81
595.053	232.81
595.262	235.81
595.472	219.81
595.681	221.81
595.89	218.81
596.1	208.81
596.309	211.81
596.518	210.81
596.727	216.81
596.937	219.81
597.146	219.81
597.355	207.81
597.564	217.81
597.774	183.81
597.983	195.81
598.192	207.81
598.401	203.81
598.61	213.81
598.819	201.81
599.028	195.81
599.237	199.81
599.446	178.81
599.655	198.81
599.864	184.81
600.073	183.81
600.282	192.81
600.491	197.81
600.7	184.81
600.909	197.81
601.118	186.81
601.327	202.81
601.536	203.81
601.745	181.81
601.953	190.81
602.162	188.81
602.371	212.81
602.58	199.81
602.789	171.81
602.997	182.81
603.206	199.81
603.415	207.81
603.623	190.81
603.832	176.81
604.041	201.81
604.249	192.81
604.458	167.81
604.666	171.81
604.875	180.81
605.084	171.81
605.292	170.81
605.501	159.81
605.709	193.81
605.918	174.81
606.126	188.81
606.334	190.81
606.543	187.81
606.751	178.81
606.96	176.81
607.168	181.81
607.376	174.81
607.585	170.81
607.793	174.81
608.001	178.81
608.21	170.81
608.418	178.81
608.626	183.81
608.834	179.81
609.043	174.81
609.251	177.81
609.459	186.81
609.667	165.81
609.875	181.81
610.083	193.81
610.291	184.81
610.499	182.81
610.707	172.81
610.916	194.81
611.124	191.81
611.332	182.81
611.54	173.81
611.748	169.81
611.955	168.81
612.163	191.81
612.371	176.81
612.579	158.81
612.787	178.81
612.995	175.81
613.203	179.81
613.411	169.81
613.618	175.81
613.826	174.81
614.034	163.81
614.242	171.81
614.449	175.81
614.657	162.81
614.865	204.81
615.072	194.81
615.28	169.81
615.488	176.81
615.695	172.81
615.903	167.81
616.111	163.81
616.318	161.81
616.526	191.81
616.733	166.81
616.941	166.81
617.148	159.81
617.356	172.81
617.563	176.81
617.771	166.81
617.978	165.81
618.185	167.81
618.393	171.81
618.6	169.81
618.807	172.81
619.015	167.81
619.222	150.81
619.429	169.81
619.637	172.81
619.844	168.81
620.051	171.81
620.258	156.81
620.466	179.81
620.673	170.81
620.88	175.81
621.087	165.81
621.294	150.81
621.501	172.81
621.708	170.81
621.915	162.81
622.122	176.81
622.329	164.81
622.536	154.81
622.743	148.81
622.95	158.81
623.157	159.81
623.364	162.81
623.571	165.81
623.778	166.81
623.985	160.81
624.192	162.81
624.399	163.81
624.606	162.81
624.812	172.81
625.019	169.81
625.226	165.81
625.433	161.81
625.639	153.81
625.846	154.81
626.053	150.81
626.259	157.81
626.466	152.81
626.673	146.81
626.879	152.81
627.086	166.81
627.293	140.81
627.499	161.81
627.706	167.81
627.912	162.81
628.119	160.81
628.325	155.81
628.532	149.81
628.738	140.81
628.945	164.81
629.151	146.81
629.357	154.81
629.564	149.81
629.77	142.81
629.976	142.81
630.183	137.81
630.389	146.81
630.595	148.81
630.802	159.81
631.008	156.81
631.214	146.81
631.42	154.81
631.627	156.81
631.833	151.81
632.039	135.81
632.245	144.81
632.451	148.81
632.657	161.81
632.863	155.81
633.069	162.81
633.275	153.81
633.481	138.81
633.688	151.81
633.893	140.81
634.099	146.81
634.305	150.81
634.511	158.81
634.717	157.81
634.923	158.81
635.129	140.81
635.335	141.81
635.541	142.81
635.747	152.81
635.952	136.81
636.158	122.81
636.364	137.81
636.57	134.81
636.775	145.81
636.981	132.81
637.187	131.81
637.392	137.81
637.598	141.81
637.804	150.81
638.009	153.81
638.215	141.81
638.421	145.81
638.626	137.81
638.832	139.81
639.037	147.81
639.243	136.81
639.448	151.81
639.654	152.81
639.859	151.81
640.065	146.81
640.27	136.81
640.475	153.81
640.681	152.81
640.886	138.81
641.091	132.81
641.297	152.81
641.502	156.81
641.707	149.81
641.913	129.81
642.118	127.81
642.323	139.81
642.528	141.81
642.733	134.81
642.939	146.81
643.144	129.81
643.349	148.81
643.554	144.81
643.759	139.81
643.964	130.81
644.169	147.81
644.374	133.81
644.579	146.81
644.784	135.81
644.989	136.81
645.194	143.81
645.399	134.81
645.604	126.81
645.809	145.81
646.014	142.81
646.219	147.81
646.423	156.81
646.628	139.81
646.833	136.81
647.038	142.81
647.243	132.81
647.447	131.81
647.652	139.81
647.857	135.81
648.062	143.81
648.266	129.81
648.471	151.81
648.676	143.81
648.88	148.81
649.085	132.81
649.289	140.81
649.494	129.81
649.698	139.81
649.903	126.81
650.107	133.81
650.312	139.81
650.516	133.81
650.721	139.81
650.925	143.81
651.13	125.81
651.334	129.81
651.539	138.81
651.743	133.81
651.947	137.81
652.152	132.81
652.356	153.81
652.56	134.81
652.764	130.81
652.969	123.81
653.173	122.81
653.377	129.81
653.581	134.81
653.785	128.81
653.99	117.81
654.194	132.81
654.398	137.81
654.602	144.81
654.806	115.81
655.01	127.81
655.214	130.81
655.418	108.81
655.622	116.81
655.826	127.81
656.03	136.81
656.234	133.81
656.438	135.81
656.642	132.81
656.846	116.81
657.049	135.81
657.253	120.81
657.457	126.81
657.661	120.81
657.865	124.81
658.068	120.81
658.272	119.81
658.476	91.81
658.68	103.81
658.883	101.81
659.087	93.81
659.291	98.81
659.494	82.81
659.698	86.81
659.901	103.81
660.105	112.81
660.309	94.81
660.512	102.81
660.716	97.81
660.919	89.81
661.123	87.81
661.326	79.81
661.53	95.81
661.733	85.81
661.936	80.81
662.14	74.81
662.343	85.81
662.546	80.81
662.75	87.81
662.953	88.81
663.156	95.81
663.36	83.81
663.563	85.81
663.766	79.81
663.969	83.81
664.173	78.81
664.376	75.81
664.579	78.81
664.782	88.81
664.985	90.81
665.188	93.81
665.391	84.81
665.594	86.81
665.797	86.81
666	84.81
666.203	68.81
666.406	88.81
666.609	83.81
666.812	79.81
667.015	90.81
667.218	88.81
667.421	86.81
667.624	75.81
667.827	75.81
668.03	75.81
668.232	79.81
668.435	85.81
668.638	82.81
668.841	82.81
669.043	77.81
669.246	104.81
669.449	85.81
669.651	79.81
669.854	62.81
670.057	83.81
670.259	76.81
670.462	66.81
670.665	79.81
670.867	81.81
671.07	104.81
671.272	86.81
671.475	93.81
671.677	82.81
671.88	79.81
672.082	86.81
672.284	79.81
672.487	80.81
672.689	69.81
672.892	74.81
