Data from Fe(NO3)3@0.025M.TitratingCurve.Agarose3%dH2O.NegLispCup.LampEnergy10.LIBS07252019_HRD10591_16-54-41-335.txt Node
Date: Thu Jul 25 16:54:41 EDT 2019
User: cochatt
Spectrometer: HR+D1059
Trigger mode: 1
Integration Time (sec): 1.000000E-1
Scans to average: 1
Electric dark correction enabled: true
Nonlinearity correction enabled: false
Boxcar width: 0
XAxis mode: Wavelengths
Number of Pixels in Spectrum: 2048
>>>>>Begin Spectral Data<<<<<
223.165	-10.25
223.4	-10.25
223.635	-10.25
223.869	-14.25
224.104	-12.25
224.338	7.75
224.573	-11.25
224.808	-12.25
225.042	-2.25
225.277	-9.25
225.511	-16.25
225.746	7.75
225.98	-4.25
226.215	-8.25
226.449	11.75
226.683	24.75
226.918	21.75
227.152	26.75
227.387	25.75
227.621	37.75
227.856	48.75
228.09	49.75
228.324	50.75
228.559	57.75
228.793	58.75
229.027	89.75
229.262	91.75
229.496	94.75
229.73	85.75
229.964	102.75
230.199	97.75
230.433	92.75
230.667	113.75
230.901	97.75
231.136	87.75
231.37	119.75
231.604	114.75
231.838	99.75
232.072	102.75
232.306	121.75
232.541	105.75
232.775	122.75
233.009	119.75
233.243	123.75
233.477	115.75
233.711	126.75
233.945	115.75
234.179	125.75
234.413	127.75
234.647	132.75
234.881	128.75
235.115	129.75
235.349	125.75
235.583	117.75
235.817	129.75
236.051	119.75
236.285	103.75
236.519	121.75
236.753	117.75
236.987	139.75
237.221	129.75
237.455	122.75
237.689	123.75
237.922	125.75
238.156	125.75
238.39	136.75
238.624	144.75
238.858	147.75
239.091	121.75
239.325	139.75
239.559	140.75
239.793	135.75
240.027	151.75
240.26	146.75
240.494	133.75
240.728	137.75
240.961	150.75
241.195	143.75
241.429	133.75
241.662	141.75
241.896	134.75
242.13	129.75
242.363	127.75
242.597	158.75
242.83	138.75
243.064	136.75
243.298	147.75
243.531	139.75
243.765	160.75
243.998	154.75
244.232	144.75
244.465	159.75
244.699	138.75
244.932	172.75
245.166	155.75
245.399	145.75
245.633	158.75
245.866	145.75
246.099	170.75
246.333	162.75
246.566	153.75
246.8	145.75
247.033	154.75
247.266	163.75
247.5	157.75
247.733	163.75
247.966	172.75
248.2	179.75
248.433	166.75
248.666	155.75
248.899	167.75
249.133	168.75
249.366	170.75
249.599	159.75
249.832	164.75
250.066	176.75
250.299	167.75
250.532	174.75
250.765	181.75
250.998	177.75
251.231	180.75
251.465	183.75
251.698	170.75
251.931	169.75
252.164	181.75
252.397	182.75
252.63	186.75
252.863	181.75
253.096	187.75
253.329	198.75
253.562	190.75
253.795	197.75
254.028	227.75
254.261	196.75
254.494	188.75
254.727	187.75
254.96	186.75
255.193	183.75
255.426	189.75
255.659	187.75
255.892	191.75
256.124	187.75
256.357	219.75
256.59	200.75
256.823	199.75
257.056	201.75
257.289	212.75
257.521	207.75
257.754	210.75
257.987	213.75
258.22	218.75
258.452	199.75
258.685	206.75
258.918	215.75
259.151	185.75
259.383	232.75
259.616	203.75
259.849	229.75
260.081	238.75
260.314	225.75
260.547	221.75
260.779	225.75
261.012	218.75
261.244	215.75
261.477	218.75
261.71	215.75
261.942	221.75
262.175	217.75
262.407	233.75
262.64	216.75
262.872	225.75
263.105	238.75
263.337	238.75
263.57	221.75
263.802	218.75
264.035	224.75
264.267	229.75
264.499	234.75
264.732	227.75
264.964	233.75
265.197	220.75
265.429	227.75
265.661	220.75
265.894	251.75
266.126	232.75
266.358	229.75
266.591	222.75
266.823	236.75
267.055	243.75
267.287	241.75
267.52	261.75
267.752	237.75
267.984	236.75
268.216	236.75
268.448	251.75
268.681	251.75
268.913	248.75
269.145	245.75
269.377	247.75
269.609	238.75
269.841	250.75
270.073	249.75
270.306	247.75
270.538	241.75
270.77	244.75
271.002	263.75
271.234	251.75
271.466	261.75
271.698	259.75
271.93	270.75
272.162	260.75
272.394	252.75
272.626	246.75
272.858	269.75
273.09	276.75
273.322	263.75
273.553	275.75
273.785	278.75
274.017	282.75
274.249	297.75
274.481	296.75
274.713	287.75
274.945	297.75
275.176	305.75
275.408	297.75
275.64	291.75
275.872	307.75
276.104	297.75
276.335	264.75
276.567	285.75
276.799	285.75
277.031	286.75
277.262	300.75
277.494	277.75
277.726	299.75
277.957	279.75
278.189	293.75
278.421	301.75
278.652	284.75
278.884	275.75
279.115	292.75
279.347	293.75
279.579	306.75
279.81	295.75
280.042	306.75
280.273	296.75
280.505	309.75
280.736	294.75
280.968	303.75
281.199	303.75
281.431	299.75
281.662	300.75
281.894	299.75
282.125	313.75
282.356	302.75
282.588	296.75
282.819	318.75
283.051	294.75
283.282	307.75
283.513	303.75
283.745	326.75
283.976	335.75
284.207	329.75
284.439	310.75
284.67	317.75
284.901	328.75
285.132	324.75
285.364	315.75
285.595	350.75
285.826	307.75
286.057	317.75
286.288	326.75
286.52	334.75
286.751	324.75
286.982	323.75
287.213	317.75
287.444	341.75
287.675	334.75
287.906	348.75
288.138	333.75
288.369	344.75
288.6	330.75
288.831	327.75
289.062	332.75
289.293	337.75
289.524	341.75
289.755	340.75
289.986	330.75
290.217	332.75
290.448	334.75
290.679	341.75
290.91	344.75
291.141	342.75
291.371	346.75
291.602	342.75
291.833	366.75
292.064	354.75
292.295	348.75
292.526	357.75
292.757	364.75
292.987	339.75
293.218	349.75
293.449	335.75
293.68	362.75
293.91	348.75
294.141	358.75
294.372	352.75
294.603	349.75
294.833	353.75
295.064	351.75
295.295	351.75
295.525	356.75
295.756	380.75
295.987	361.75
296.217	374.75
296.448	385.75
296.679	379.75
296.909	360.75
297.14	378.75
297.37	371.75
297.601	373.75
297.831	378.75
298.062	373.75
298.292	375.75
298.523	395.75
298.753	383.75
298.984	377.75
299.214	345.75
299.445	379.75
299.675	397.75
299.905	387.75
300.136	389.75
300.366	378.75
300.597	389.75
300.827	398.75
301.057	402.75
301.288	398.75
301.518	409.75
301.748	389.75
301.979	405.75
302.209	394.75
302.439	390.75
302.669	387.75
302.9	399.75
303.13	410.75
303.36	406.75
303.59	392.75
303.82	396.75
304.051	404.75
304.281	391.75
304.511	395.75
304.741	381.75
304.971	399.75
305.201	404.75
305.431	405.75
305.661	397.75
305.891	426.75
306.121	420.75
306.352	415.75
306.582	418.75
306.812	422.75
307.042	410.75
307.272	401.75
307.502	407.75
307.731	415.75
307.961	419.75
308.191	387.75
308.421	412.75
308.651	397.75
308.881	397.75
309.111	427.75
309.341	406.75
309.571	420.75
309.8	417.75
310.03	409.75
310.26	405.75
310.49	404.75
310.72	411.75
310.949	414.75
311.179	411.75
311.409	412.75
311.639	437.75
311.868	423.75
312.098	423.75
312.328	442.75
312.557	422.75
312.787	412.75
313.017	445.75
313.246	428.75
313.476	456.75
313.706	467.75
313.935	425.75
314.165	435.75
314.394	452.75
314.624	456.75
314.853	446.75
315.083	425.75
315.312	435.75
315.542	430.75
315.771	457.75
316.001	447.75
316.23	435.75
316.46	444.75
316.689	465.75
316.919	451.75
317.148	459.75
317.377	433.75
317.607	448.75
317.836	470.75
318.065	473.75
318.295	473.75
318.524	457.75
318.753	443.75
318.983	454.75
319.212	455.75
319.441	478.75
319.67	456.75
319.9	455.75
320.129	470.75
320.358	454.75
320.587	468.75
320.816	457.75
321.046	461.75
321.275	472.75
321.504	459.75
321.733	463.75
321.962	458.75
322.191	462.75
322.42	466.75
322.649	474.75
322.878	466.75
323.108	479.75
323.337	474.75
323.566	474.75
323.795	466.75
324.024	467.75
324.253	461.75
324.482	459.75
324.71	475.75
324.939	485.75
325.168	505.75
325.397	494.75
325.626	487.75
325.855	496.75
326.084	479.75
326.313	494.75
326.542	465.75
326.77	481.75
326.999	486.75
327.228	492.75
327.457	494.75
327.686	502.75
327.914	517.75
328.143	509.75
328.372	495.75
328.6	536.75
328.829	508.75
329.058	490.75
329.287	508.75
329.515	520.75
329.744	506.75
329.972	525.75
330.201	506.75
330.43	519.75
330.658	492.75
330.887	517.75
331.115	523.75
331.344	533.75
331.572	513.75
331.801	524.75
332.03	512.75
332.258	531.75
332.486	556.75
332.715	527.75
332.943	565.75
333.172	539.75
333.4	561.75
333.629	571.75
333.857	567.75
334.085	572.75
334.314	563.75
334.542	551.75
334.771	584.75
334.999	587.75
335.227	583.75
335.455	583.75
335.684	589.75
335.912	571.75
336.14	579.75
336.369	572.75
336.597	573.75
336.825	537.75
337.053	580.75
337.281	574.75
337.51	554.75
337.738	580.75
337.966	539.75
338.194	573.75
338.422	553.75
338.65	554.75
338.878	561.75
339.106	579.75
339.334	533.75
339.562	545.75
339.79	567.75
340.018	542.75
340.246	546.75
340.474	520.75
340.702	534.75
340.93	539.75
341.158	515.75
341.386	539.75
341.614	546.75
341.842	537.75
342.07	527.75
342.298	535.75
342.526	523.75
342.754	528.75
342.981	547.75
343.209	550.75
343.437	568.75
343.665	527.75
343.893	559.75
344.12	569.75
344.348	596.75
344.576	541.75
344.804	566.75
345.031	541.75
345.259	541.75
345.487	539.75
345.714	534.75
345.942	553.75
346.17	519.75
346.397	532.75
346.625	510.75
346.853	534.75
347.08	529.75
347.308	502.75
347.535	523.75
347.763	517.75
347.99	517.75
348.218	520.75
348.445	525.75
348.673	515.75
348.9	518.75
349.128	530.75
349.355	513.75
349.583	509.75
349.81	527.75
350.037	503.75
350.265	493.75
350.492	516.75
350.72	499.75
350.947	517.75
351.174	511.75
351.402	539.75
351.629	529.75
351.856	500.75
352.083	513.75
352.311	524.75
352.538	498.75
352.765	509.75
352.992	528.75
353.22	514.75
353.447	526.75
353.674	536.75
353.901	527.75
354.128	525.75
354.355	524.75
354.583	518.75
354.81	497.75
355.037	509.75
355.264	518.75
355.491	522.75
355.718	518.75
355.945	503.75
356.172	519.75
356.399	515.75
356.626	517.75
356.853	510.75
357.08	524.75
357.307	508.75
357.534	525.75
357.761	544.75
357.988	552.75
358.215	531.75
358.441	527.75
358.668	525.75
358.895	530.75
359.122	519.75
359.349	524.75
359.576	518.75
359.802	524.75
360.029	527.75
360.256	532.75
360.483	515.75
360.709	532.75
360.936	539.75
361.163	518.75
361.39	523.75
361.616	528.75
361.843	523.75
362.07	535.75
362.296	538.75
362.523	540.75
362.749	533.75
362.976	513.75
363.203	533.75
363.429	539.75
363.656	547.75
363.882	536.75
364.109	521.75
364.335	521.75
364.562	519.75
364.788	518.75
365.015	533.75
365.241	539.75
365.468	520.75
365.694	513.75
365.92	532.75
366.147	558.75
366.373	524.75
366.599	527.75
366.826	538.75
367.052	539.75
367.278	550.75
367.505	518.75
367.731	547.75
367.957	534.75
368.184	520.75
368.41	533.75
368.636	518.75
368.862	553.75
369.089	557.75
369.315	533.75
369.541	543.75
369.767	541.75
369.993	557.75
370.219	533.75
370.445	569.75
370.672	539.75
370.898	566.75
371.124	563.75
371.35	579.75
371.576	566.75
371.802	577.75
372.028	555.75
372.254	572.75
372.48	558.75
372.706	585.75
372.932	574.75
373.158	574.75
373.384	580.75
373.61	583.75
373.835	597.75
374.061	603.75
374.287	587.75
374.513	596.75
374.739	577.75
374.965	581.75
375.191	599.75
375.416	585.75
375.642	581.75
375.868	621.75
376.094	570.75
376.319	569.75
376.545	549.75
376.771	573.75
376.997	569.75
377.222	568.75
377.448	564.75
377.674	555.75
377.899	549.75
378.125	555.75
378.35	547.75
378.576	539.75
378.802	569.75
379.027	553.75
379.253	550.75
379.478	555.75
379.704	580.75
379.929	575.75
380.155	564.75
380.38	563.75
380.606	552.75
380.831	571.75
381.057	590.75
381.282	557.75
381.507	559.75
381.733	567.75
381.958	601.75
382.184	609.75
382.409	609.75
382.634	610.75
382.86	597.75
383.085	576.75
383.31	582.75
383.535	589.75
383.761	599.75
383.986	611.75
384.211	597.75
384.436	611.75
384.662	601.75
384.887	637.75
385.112	610.75
385.337	634.75
385.562	611.75
385.787	629.75
386.013	664.75
386.238	655.75
386.463	637.75
386.688	631.75
386.913	625.75
387.138	631.75
387.363	658.75
387.588	647.75
387.813	658.75
388.038	645.75
388.263	641.75
388.488	638.75
388.713	655.75
388.938	629.75
389.163	671.75
389.387	679.75
389.612	656.75
389.837	652.75
390.062	665.75
390.287	653.75
390.512	666.75
390.736	677.75
390.961	683.75
391.186	641.75
391.411	664.75
391.636	661.75
391.86	675.75
392.085	683.75
392.31	703.75
392.534	699.75
392.759	697.75
392.984	666.75
393.208	704.75
393.433	679.75
393.658	691.75
393.882	689.75
394.107	666.75
394.331	675.75
394.556	683.75
394.78	681.75
395.005	689.75
395.229	665.75
395.454	700.75
395.678	669.75
395.903	693.75
396.127	687.75
396.352	664.75
396.576	692.75
396.801	716.75
397.025	707.75
397.249	727.75
397.474	720.75
397.698	724.75
397.922	730.75
398.147	737.75
398.371	739.75
398.595	759.75
398.82	770.75
399.044	782.75
399.268	806.75
399.492	829.75
399.717	844.75
399.941	898.75
400.165	868.75
400.389	864.75
400.613	807.75
400.837	797.75
401.062	773.75
401.286	777.75
401.51	782.75
401.734	749.75
401.958	770.75
402.182	759.75
402.406	775.75
402.63	761.75
402.854	743.75
403.078	781.75
403.302	760.75
403.526	767.75
403.75	766.75
403.974	762.75
404.198	748.75
404.422	799.75
404.645	771.75
404.869	759.75
405.093	769.75
405.317	756.75
405.541	779.75
405.765	823.75
405.988	795.75
406.212	784.75
406.436	817.75
406.66	813.75
406.883	820.75
407.107	863.75
407.331	837.75
407.555	865.75
407.778	865.75
408.002	878.75
408.226	841.75
408.449	859.75
408.673	843.75
408.896	823.75
409.12	843.75
409.344	818.75
409.567	812.75
409.791	803.75
410.014	807.75
410.238	805.75
410.461	786.75
410.685	830.75
410.908	779.75
411.132	773.75
411.355	804.75
411.578	787.75
411.802	770.75
412.025	767.75
412.249	798.75
412.472	808.75
412.695	785.75
412.919	789.75
413.142	760.75
413.365	740.75
413.589	785.75
413.812	767.75
414.035	747.75
414.258	809.75
414.482	767.75
414.705	735.75
414.928	749.75
415.151	740.75
415.374	754.75
415.597	751.75
415.821	734.75
416.044	743.75
416.267	739.75
416.49	742.75
416.713	731.75
416.936	730.75
417.159	742.75
417.382	729.75
417.605	701.75
417.828	710.75
418.051	735.75
418.274	735.75
418.497	713.75
418.72	710.75
418.943	707.75
419.166	729.75
419.389	767.75
419.611	783.75
419.834	776.75
420.057	743.75
420.28	709.75
420.503	711.75
420.726	713.75
420.948	704.75
421.171	724.75
421.394	694.75
421.617	715.75
421.839	734.75
422.062	737.75
422.285	726.75
422.507	723.75
422.73	718.75
422.953	731.75
423.175	718.75
423.398	715.75
423.621	724.75
423.843	743.75
424.066	715.75
424.288	715.75
424.511	712.75
424.733	694.75
424.956	697.75
425.178	693.75
425.401	706.75
425.623	727.75
425.846	700.75
426.068	718.75
426.291	695.75
426.513	709.75
426.735	678.75
426.958	692.75
427.18	702.75
427.402	686.75
427.625	702.75
427.847	691.75
428.069	680.75
428.292	684.75
428.514	696.75
428.736	699.75
428.958	709.75
429.181	676.75
429.403	687.75
429.625	669.75
429.847	653.75
430.069	695.75
430.292	693.75
430.514	667.75
430.736	665.75
430.958	694.75
431.18	667.75
431.402	706.75
431.624	688.75
431.846	662.75
432.068	689.75
432.29	708.75
432.512	665.75
432.734	681.75
432.956	677.75
433.178	677.75
433.4	673.75
433.622	706.75
433.844	713.75
434.066	703.75
434.287	691.75
434.509	698.75
434.731	683.75
434.953	731.75
435.175	699.75
435.397	717.75
435.618	705.75
435.84	674.75
436.062	676.75
436.284	689.75
436.505	676.75
436.727	669.75
436.949	652.75
437.17	689.75
437.392	674.75
437.614	673.75
437.835	666.75
438.057	647.75
438.278	636.75
438.5	665.75
438.721	645.75
438.943	665.75
439.165	642.75
439.386	661.75
439.608	668.75
439.829	657.75
440.05	657.75
440.272	670.75
440.493	643.75
440.715	673.75
440.936	663.75
441.158	680.75
441.379	693.75
441.6	693.75
441.822	679.75
442.043	706.75
442.264	705.75
442.486	698.75
442.707	711.75
442.928	673.75
443.149	705.75
443.371	681.75
443.592	673.75
443.813	650.75
444.034	682.75
444.255	701.75
444.476	729.75
444.698	719.75
444.919	731.75
445.14	812.75
445.361	747.75
445.582	707.75
445.803	683.75
446.024	689.75
446.245	690.75
446.466	664.75
446.687	667.75
446.908	654.75
447.129	642.75
447.35	648.75
447.571	664.75
447.792	615.75
448.013	641.75
448.234	636.75
448.455	633.75
448.675	633.75
448.896	628.75
449.117	617.75
449.338	633.75
449.559	612.75
449.779	625.75
450	593.75
450.221	618.75
450.442	598.75
450.662	613.75
450.883	616.75
451.104	624.75
451.324	606.75
451.545	620.75
451.766	601.75
451.986	604.75
452.207	599.75
452.428	603.75
452.648	596.75
452.869	604.75
453.089	602.75
453.31	606.75
453.53	577.75
453.751	615.75
453.971	599.75
454.192	608.75
454.412	609.75
454.633	601.75
454.853	578.75
455.073	593.75
455.294	598.75
455.514	580.75
455.734	588.75
455.955	570.75
456.175	580.75
456.395	594.75
456.616	605.75
456.836	601.75
457.056	598.75
457.276	593.75
457.497	600.75
457.717	599.75
457.937	629.75
458.157	629.75
458.377	594.75
458.598	625.75
458.818	623.75
459.038	655.75
459.258	659.75
459.478	670.75
459.698	665.75
459.918	687.75
460.138	670.75
460.358	697.75
460.578	694.75
460.798	701.75
461.018	709.75
461.238	732.75
461.458	719.75
461.678	691.75
461.898	741.75
462.118	743.75
462.338	746.75
462.558	754.75
462.777	797.75
462.997	768.75
463.217	794.75
463.437	789.75
463.657	795.75
463.876	771.75
464.096	794.75
464.316	775.75
464.536	777.75
464.755	757.75
464.975	755.75
465.195	759.75
465.414	721.75
465.634	702.75
465.854	705.75
466.073	691.75
466.293	675.75
466.512	677.75
466.732	667.75
466.951	650.75
467.171	649.75
467.391	652.75
467.61	653.75
467.829	676.75
468.049	661.75
468.268	638.75
468.488	653.75
468.707	629.75
468.927	661.75
469.146	640.75
469.365	650.75
469.585	652.75
469.804	650.75
470.023	673.75
470.243	641.75
470.462	668.75
470.681	650.75
470.901	659.75
471.12	623.75
471.339	653.75
471.558	665.75
471.777	670.75
471.997	651.75
472.216	645.75
472.435	665.75
472.654	637.75
472.873	639.75
473.092	643.75
473.311	651.75
473.53	625.75
473.749	632.75
473.968	625.75
474.187	646.75
474.406	649.75
474.625	649.75
474.844	652.75
475.063	638.75
475.282	661.75
475.501	675.75
475.72	667.75
475.939	648.75
476.158	679.75
476.377	704.75
476.596	687.75
476.814	683.75
477.033	672.75
477.252	703.75
477.471	675.75
477.69	725.75
477.908	722.75
478.127	737.75
478.346	716.75
478.564	769.75
478.783	755.75
479.002	777.75
479.22	776.75
479.439	748.75
479.658	795.75
479.876	782.75
480.095	799.75
480.313	795.75
480.532	772.75
480.751	781.75
480.969	757.75
481.188	779.75
481.406	785.75
481.624	748.75
481.843	773.75
482.061	777.75
482.28	774.75
482.498	781.75
482.717	794.75
482.935	740.75
483.153	731.75
483.372	777.75
483.59	762.75
483.808	763.75
484.027	763.75
484.245	765.75
484.463	769.75
484.681	780.75
484.9	767.75
485.118	777.75
485.336	760.75
485.554	794.75
485.772	776.75
485.99	770.75
486.209	758.75
486.427	741.75
486.645	791.75
486.863	781.75
487.081	747.75
487.299	781.75
487.517	782.75
487.735	803.75
487.953	781.75
488.171	797.75
488.389	805.75
488.607	774.75
488.825	770.75
489.043	749.75
489.261	769.75
489.479	794.75
489.696	774.75
489.914	793.75
490.132	787.75
490.35	762.75
490.568	771.75
490.786	789.75
491.003	817.75
491.221	806.75
491.439	806.75
491.657	777.75
491.874	784.75
492.092	805.75
492.31	791.75
492.527	815.75
492.745	793.75
492.963	824.75
493.18	804.75
493.398	820.75
493.615	787.75
493.833	820.75
494.05	819.75
494.268	805.75
494.485	819.75
494.703	846.75
494.92	821.75
495.138	851.75
495.355	859.75
495.573	835.75
495.79	834.75
496.008	847.75
496.225	851.75
496.442	885.75
496.66	886.75
496.877	893.75
497.094	885.75
497.312	908.75
497.529	915.75
497.746	957.75
497.963	938.75
498.181	981.75
498.398	1007.75
498.615	1013.75
498.832	1057.75
499.049	1089.75
499.267	1116.75
499.484	1195.75
499.701	1194.75
499.918	1230.75
500.135	1289.75
500.352	1321.75
500.569	1355.75
500.786	1358.75
501.003	1308.75
501.22	1301.75
501.437	1252.75
501.654	1186.75
501.871	1188.75
502.088	1126.75
502.305	1104.75
502.522	1038.75
502.739	1030.75
502.956	1012.75
503.172	961.75
503.389	933.75
503.606	923.75
503.823	925.75
504.04	921.75
504.256	917.75
504.473	894.75
504.69	881.75
504.907	854.75
505.123	836.75
505.34	840.75
505.557	845.75
505.773	790.75
505.99	798.75
506.207	804.75
506.423	801.75
506.64	750.75
506.856	772.75
507.073	749.75
507.289	746.75
507.506	734.75
507.722	740.75
507.939	746.75
508.155	724.75
508.372	734.75
508.588	710.75
508.805	719.75
509.021	712.75
509.238	702.75
509.454	690.75
509.67	719.75
509.887	681.75
510.103	698.75
510.319	703.75
510.536	702.75
510.752	675.75
510.968	678.75
511.184	673.75
511.401	682.75
511.617	662.75
511.833	675.75
512.049	675.75
512.265	663.75
512.481	666.75
512.698	667.75
512.914	680.75
513.13	687.75
513.346	675.75
513.562	713.75
513.778	693.75
513.994	668.75
514.21	700.75
514.426	678.75
514.642	703.75
514.858	694.75
515.074	697.75
515.29	701.75
515.506	686.75
515.721	696.75
515.937	723.75
516.153	704.75
516.369	715.75
516.585	716.75
516.801	741.75
517.016	739.75
517.232	732.75
517.448	741.75
517.664	762.75
517.879	773.75
518.095	755.75
518.311	793.75
518.527	732.75
518.742	729.75
518.958	712.75
519.173	711.75
519.389	723.75
519.605	694.75
519.82	706.75
520.036	706.75
520.251	697.75
520.467	678.75
520.682	653.75
520.898	662.75
521.113	665.75
521.329	671.75
521.544	619.75
521.76	655.75
521.975	645.75
522.19	631.75
522.406	643.75
522.621	643.75
522.836	655.75
523.052	669.75
523.267	639.75
523.482	631.75
523.698	645.75
523.913	638.75
524.128	616.75
524.343	627.75
524.559	651.75
524.774	612.75
524.989	613.75
525.204	632.75
525.419	629.75
525.634	618.75
525.849	609.75
526.064	603.75
526.28	606.75
526.495	610.75
526.71	607.75
526.925	618.75
527.14	622.75
527.355	606.75
527.57	594.75
527.785	609.75
527.999	588.75
528.214	581.75
528.429	587.75
528.644	588.75
528.859	602.75
529.074	607.75
529.289	604.75
529.503	582.75
529.718	595.75
529.933	615.75
530.148	611.75
530.363	600.75
530.577	593.75
530.792	600.75
531.007	622.75
531.221	594.75
531.436	600.75
531.651	588.75
531.865	609.75
532.08	590.75
532.295	559.75
532.509	582.75
532.724	595.75
532.938	593.75
533.153	615.75
533.367	587.75
533.582	594.75
533.796	586.75
534.011	565.75
534.225	578.75
534.44	565.75
534.654	581.75
534.868	568.75
535.083	578.75
535.297	574.75
535.511	588.75
535.726	575.75
535.94	594.75
536.154	554.75
536.369	565.75
536.583	564.75
536.797	576.75
537.011	564.75
537.225	580.75
537.44	562.75
537.654	570.75
537.868	550.75
538.082	559.75
538.296	533.75
538.51	564.75
538.724	570.75
538.938	564.75
539.153	536.75
539.367	569.75
539.581	550.75
539.795	549.75
540.009	516.75
540.222	526.75
540.436	533.75
540.65	553.75
540.864	559.75
541.078	546.75
541.292	541.75
541.506	557.75
541.72	536.75
541.934	534.75
542.147	531.75
542.361	551.75
542.575	537.75
542.789	526.75
543.002	548.75
543.216	532.75
543.43	560.75
543.644	541.75
543.857	537.75
544.071	554.75
544.285	518.75
544.498	542.75
544.712	553.75
544.925	540.75
545.139	527.75
545.352	561.75
545.566	539.75
545.779	549.75
545.993	545.75
546.206	531.75
546.42	522.75
546.633	561.75
546.847	573.75
547.06	543.75
547.274	533.75
547.487	544.75
547.7	553.75
547.914	549.75
548.127	542.75
548.34	565.75
548.554	546.75
548.767	558.75
548.98	516.75
549.193	534.75
549.407	553.75
549.62	539.75
549.833	574.75
550.046	553.75
550.259	537.75
550.473	542.75
550.686	545.75
550.899	536.75
551.112	537.75
551.325	547.75
551.538	514.75
551.751	545.75
551.964	528.75
552.177	541.75
552.39	558.75
552.603	532.75
552.816	553.75
553.029	525.75
553.242	535.75
553.455	550.75
553.667	548.75
553.88	547.75
554.093	526.75
554.306	528.75
554.519	511.75
554.732	524.75
554.944	509.75
555.157	511.75
555.37	503.75
555.583	516.75
555.795	508.75
556.008	499.75
556.221	485.75
556.433	471.75
556.646	490.75
556.859	466.75
557.071	486.75
557.284	489.75
557.496	489.75
557.709	497.75
557.921	479.75
558.134	482.75
558.346	458.75
558.559	466.75
558.771	467.75
558.984	472.75
559.196	474.75
559.409	455.75
559.621	471.75
559.833	463.75
560.046	472.75
560.258	470.75
560.47	460.75
560.683	462.75
560.895	443.75
561.107	442.75
561.32	471.75
561.532	456.75
561.744	471.75
561.956	458.75
562.168	476.75
562.381	471.75
562.593	460.75
562.805	467.75
563.017	473.75
563.229	477.75
563.441	446.75
563.653	482.75
563.865	454.75
564.077	470.75
564.289	478.75
564.501	475.75
564.713	506.75
564.925	483.75
565.137	506.75
565.349	500.75
565.561	513.75
565.773	523.75
565.985	521.75
566.197	541.75
566.408	553.75
566.62	560.75
566.832	591.75
567.044	582.75
567.255	564.75
567.467	581.75
567.679	575.75
567.891	579.75
568.102	550.75
568.314	561.75
568.526	550.75
568.737	527.75
568.949	528.75
569.161	489.75
569.372	490.75
569.584	488.75
569.795	481.75
570.007	476.75
570.218	459.75
570.43	471.75
570.641	469.75
570.853	462.75
571.064	465.75
571.276	437.75
571.487	452.75
571.698	409.75
571.91	438.75
572.121	410.75
572.333	422.75
572.544	425.75
572.755	437.75
572.966	403.75
573.178	396.75
573.389	389.75
573.6	371.75
573.811	385.75
574.023	379.75
574.234	406.75
574.445	393.75
574.656	380.75
574.867	382.75
575.078	395.75
575.289	398.75
575.501	402.75
575.712	383.75
575.923	360.75
576.134	373.75
576.345	367.75
576.556	389.75
576.767	371.75
576.978	364.75
577.188	379.75
577.399	362.75
577.61	365.75
577.821	351.75
578.032	351.75
578.243	382.75
578.454	360.75
578.665	345.75
578.875	340.75
579.086	346.75
579.297	349.75
579.508	354.75
579.718	337.75
579.929	345.75
580.14	348.75
580.35	354.75
580.561	319.75
580.772	340.75
580.982	332.75
581.193	348.75
581.403	332.75
581.614	340.75
581.825	357.75
582.035	369.75
582.246	340.75
582.456	342.75
582.667	330.75
582.877	320.75
583.087	316.75
583.298	318.75
583.508	322.75
583.719	336.75
583.929	344.75
584.139	316.75
584.35	325.75
584.56	333.75
584.77	327.75
584.981	314.75
585.191	316.75
585.401	320.75
585.611	327.75
585.821	313.75
586.032	330.75
586.242	298.75
586.452	322.75
586.662	325.75
586.872	306.75
587.082	300.75
587.292	321.75
587.502	309.75
587.713	313.75
587.923	313.75
588.133	311.75
588.343	320.75
588.553	328.75
588.762	320.75
588.972	328.75
589.182	375.75
589.392	355.75
589.602	324.75
589.812	357.75
590.022	335.75
590.232	328.75
590.441	313.75
590.651	310.75
590.861	321.75
591.071	309.75
591.281	325.75
591.49	309.75
591.7	347.75
591.91	348.75
592.119	332.75
592.329	353.75
592.539	322.75
592.748	333.75
592.958	343.75
593.167	337.75
593.377	334.75
593.587	341.75
593.796	337.75
594.006	340.75
594.215	339.75
594.424	335.75
594.634	316.75
594.843	312.75
595.053	329.75
595.262	331.75
595.472	350.75
595.681	318.75
595.89	299.75
596.1	302.75
596.309	311.75
596.518	287.75
596.727	307.75
596.937	291.75
597.146	270.75
597.355	301.75
597.564	283.75
597.774	278.75
597.983	292.75
598.192	278.75
598.401	279.75
598.61	286.75
598.819	275.75
599.028	273.75
599.237	285.75
599.446	267.75
599.655	279.75
599.864	279.75
600.073	263.75
600.282	243.75
600.491	264.75
600.7	289.75
600.909	289.75
601.118	260.75
601.327	286.75
601.536	279.75
601.745	275.75
601.953	270.75
602.162	285.75
602.371	283.75
602.58	269.75
602.789	257.75
602.997	270.75
603.206	245.75
603.415	258.75
603.623	265.75
603.832	267.75
604.041	258.75
604.249	263.75
604.458	241.75
604.666	257.75
604.875	260.75
605.084	243.75
605.292	241.75
605.501	250.75
605.709	251.75
605.918	247.75
606.126	271.75
606.334	254.75
606.543	257.75
606.751	257.75
606.96	264.75
607.168	238.75
607.376	243.75
607.585	260.75
607.793	247.75
608.001	246.75
608.21	245.75
608.418	241.75
608.626	253.75
608.834	236.75
609.043	255.75
609.251	236.75
609.459	235.75
609.667	261.75
609.875	219.75
610.083	244.75
610.291	222.75
610.499	241.75
610.707	237.75
610.916	235.75
611.124	247.75
611.332	250.75
611.54	244.75
611.748	224.75
611.955	244.75
612.163	245.75
612.371	230.75
612.579	226.75
612.787	243.75
612.995	223.75
613.203	270.75
613.411	227.75
613.618	246.75
613.826	249.75
614.034	243.75
614.242	263.75
614.449	237.75
614.657	252.75
614.865	243.75
615.072	228.75
615.28	243.75
615.488	234.75
615.695	240.75
615.903	256.75
616.111	218.75
616.318	234.75
616.526	236.75
616.733	241.75
616.941	255.75
617.148	235.75
617.356	238.75
617.563	243.75
617.771	249.75
617.978	225.75
618.185	224.75
618.393	249.75
618.6	246.75
618.807	250.75
619.015	220.75
619.222	230.75
619.429	243.75
619.637	232.75
619.844	244.75
620.051	226.75
620.258	235.75
620.466	221.75
620.673	227.75
620.88	208.75
621.087	216.75
621.294	228.75
621.501	216.75
621.708	211.75
621.915	204.75
622.122	222.75
622.329	233.75
622.536	223.75
622.743	227.75
622.95	235.75
623.157	210.75
623.364	238.75
623.571	222.75
623.778	225.75
623.985	208.75
624.192	201.75
624.399	204.75
624.606	222.75
624.812	241.75
625.019	237.75
625.226	225.75
625.433	215.75
625.639	210.75
625.846	210.75
626.053	204.75
626.259	221.75
626.466	213.75
626.673	208.75
626.879	216.75
627.086	217.75
627.293	206.75
627.499	212.75
627.706	211.75
627.912	218.75
628.119	201.75
628.325	197.75
628.532	190.75
628.738	207.75
628.945	214.75
629.151	211.75
629.357	213.75
629.564	197.75
629.77	210.75
629.976	193.75
630.183	183.75
630.389	198.75
630.595	204.75
630.802	213.75
631.008	211.75
631.214	205.75
631.42	197.75
631.627	188.75
631.833	214.75
632.039	191.75
632.245	203.75
632.451	207.75
632.657	201.75
632.863	191.75
633.069	209.75
633.275	180.75
633.481	203.75
633.688	194.75
633.893	194.75
634.099	186.75
634.305	204.75
634.511	184.75
634.717	187.75
634.923	174.75
635.129	200.75
635.335	191.75
635.541	188.75
635.747	207.75
635.952	210.75
636.158	195.75
636.364	194.75
636.57	216.75
636.775	191.75
636.981	204.75
637.187	195.75
637.392	181.75
637.598	187.75
637.804	183.75
638.009	180.75
638.215	195.75
638.421	195.75
638.626	185.75
638.832	189.75
639.037	198.75
639.243	200.75
639.448	186.75
639.654	192.75
639.859	193.75
640.065	198.75
640.27	184.75
640.475	179.75
640.681	161.75
640.886	174.75
641.091	189.75
641.297	189.75
641.502	191.75
641.707	182.75
641.913	175.75
642.118	178.75
642.323	189.75
642.528	175.75
642.733	189.75
642.939	190.75
643.144	181.75
643.349	180.75
643.554	186.75
643.759	186.75
643.964	184.75
644.169	189.75
644.374	179.75
644.579	185.75
644.784	175.75
644.989	181.75
645.194	190.75
645.399	188.75
645.604	193.75
645.809	191.75
646.014	181.75
646.219	191.75
646.423	191.75
646.628	194.75
646.833	176.75
647.038	182.75
647.243	180.75
647.447	180.75
647.652	196.75
647.857	179.75
648.062	191.75
648.266	194.75
648.471	189.75
648.676	190.75
648.88	185.75
649.085	187.75
649.289	201.75
649.494	187.75
649.698	199.75
649.903	184.75
650.107	190.75
650.312	201.75
650.516	198.75
650.721	167.75
650.925	183.75
651.13	170.75
651.334	163.75
651.539	185.75
651.743	175.75
651.947	194.75
652.152	200.75
652.356	179.75
652.56	195.75
652.764	176.75
652.969	179.75
653.173	163.75
653.377	180.75
653.581	159.75
653.785	170.75
653.99	155.75
654.194	183.75
654.398	169.75
654.602	179.75
654.806	158.75
655.01	151.75
655.214	161.75
655.418	179.75
655.622	166.75
655.826	168.75
656.03	149.75
656.234	161.75
656.438	166.75
656.642	168.75
656.846	172.75
657.049	164.75
657.253	146.75
657.457	161.75
657.661	151.75
657.865	149.75
658.068	153.75
658.272	137.75
658.476	126.75
658.68	114.75
658.883	143.75
659.087	127.75
659.291	114.75
659.494	112.75
659.698	117.75
659.901	113.75
660.105	113.75
660.309	116.75
660.512	117.75
660.716	121.75
660.919	108.75
661.123	91.75
661.326	107.75
661.53	94.75
661.733	83.75
661.936	101.75
662.14	86.75
662.343	101.75
662.546	103.75
662.75	93.75
662.953	97.75
663.156	89.75
663.36	98.75
663.563	91.75
663.766	82.75
663.969	84.75
664.173	75.75
664.376	85.75
664.579	76.75
664.782	91.75
664.985	82.75
665.188	78.75
665.391	87.75
665.594	76.75
665.797	76.75
666	86.75
666.203	93.75
666.406	83.75
666.609	87.75
666.812	87.75
667.015	89.75
667.218	87.75
667.421	90.75
667.624	82.75
667.827	88.75
668.03	109.75
668.232	91.75
668.435	89.75
668.638	86.75
668.841	94.75
669.043	77.75
669.246	92.75
669.449	79.75
669.651	89.75
669.854	85.75
670.057	84.75
670.259	79.75
670.462	77.75
670.665	92.75
670.867	79.75
671.07	76.75
671.272	85.75
671.475	94.75
671.677	80.75
671.88	81.75
672.082	76.75
672.284	77.75
672.487	74.75
672.689	76.75
672.892	82.75
