Data from Fe(NO3)3@0.05M.TitratingCurve.Agarose3%dH2O.NegLispCup.LampEnergy10.LIBS07252019_HRD10591_16-48-58-334.txt Node
Date: Thu Jul 25 16:48:58 EDT 2019
User: cochatt
Spectrometer: HR+D1059
Trigger mode: 1
Integration Time (sec): 1.000000E-1
Scans to average: 1
Electric dark correction enabled: true
Nonlinearity correction enabled: false
Boxcar width: 0
XAxis mode: Wavelengths
Number of Pixels in Spectrum: 2048
>>>>>Begin Spectral Data<<<<<
223.165	-6.31
223.4	-6.31
223.635	-6.31
223.869	-2.31
224.104	-24.31
224.338	-16.31
224.573	-21.31
224.808	-11.31
225.042	-16.31
225.277	-0.31
225.511	-7.31
225.746	0.69
225.98	-5.31
226.215	14.69
226.449	12.69
226.683	29.69
226.918	29.69
227.152	23.69
227.387	16.69
227.621	38.69
227.856	37.69
228.09	34.69
228.324	53.69
228.559	55.69
228.793	59.69
229.027	93.69
229.262	75.69
229.496	78.69
229.73	78.69
229.964	81.69
230.199	87.69
230.433	74.69
230.667	84.69
230.901	109.69
231.136	94.69
231.37	83.69
231.604	85.69
231.838	98.69
232.072	88.69
232.306	97.69
232.541	95.69
232.775	93.69
233.009	103.69
233.243	106.69
233.477	95.69
233.711	95.69
233.945	77.69
234.179	88.69
234.413	90.69
234.647	99.69
234.881	95.69
235.115	101.69
235.349	98.69
235.583	110.69
235.817	91.69
236.051	100.69
236.285	86.69
236.519	85.69
236.753	115.69
236.987	95.69
237.221	98.69
237.455	95.69
237.689	107.69
237.922	93.69
238.156	102.69
238.39	100.69
238.624	108.69
238.858	113.69
239.091	114.69
239.325	111.69
239.559	96.69
239.793	99.69
240.027	108.69
240.26	105.69
240.494	106.69
240.728	95.69
240.961	108.69
241.195	111.69
241.429	101.69
241.662	92.69
241.896	101.69
242.13	98.69
242.363	106.69
242.597	107.69
242.83	117.69
243.064	100.69
243.298	98.69
243.531	97.69
243.765	110.69
243.998	102.69
244.232	107.69
244.465	105.69
244.699	118.69
244.932	119.69
245.166	109.69
245.399	105.69
245.633	99.69
245.866	109.69
246.099	106.69
246.333	95.69
246.566	101.69
246.8	101.69
247.033	116.69
247.266	113.69
247.5	123.69
247.733	126.69
247.966	127.69
248.2	119.69
248.433	115.69
248.666	109.69
248.899	130.69
249.133	114.69
249.366	107.69
249.599	114.69
249.832	118.69
250.066	121.69
250.299	132.69
250.532	134.69
250.765	109.69
250.998	111.69
251.231	124.69
251.465	133.69
251.698	116.69
251.931	119.69
252.164	127.69
252.397	134.69
252.63	123.69
252.863	126.69
253.096	125.69
253.329	121.69
253.562	121.69
253.795	114.69
254.028	137.69
254.261	123.69
254.494	134.69
254.727	118.69
254.96	120.69
255.193	129.69
255.426	135.69
255.659	126.69
255.892	130.69
256.124	124.69
256.357	110.69
256.59	121.69
256.823	139.69
257.056	123.69
257.289	134.69
257.521	135.69
257.754	124.69
257.987	126.69
258.22	134.69
258.452	114.69
258.685	135.69
258.918	132.69
259.151	133.69
259.383	136.69
259.616	132.69
259.849	147.69
260.081	131.69
260.314	142.69
260.547	145.69
260.779	136.69
261.012	147.69
261.244	123.69
261.477	143.69
261.71	125.69
261.942	149.69
262.175	138.69
262.407	148.69
262.64	144.69
262.872	133.69
263.105	148.69
263.337	143.69
263.57	126.69
263.802	148.69
264.035	136.69
264.267	147.69
264.499	135.69
264.732	140.69
264.964	149.69
265.197	147.69
265.429	132.69
265.661	146.69
265.894	149.69
266.126	138.69
266.358	133.69
266.591	159.69
266.823	142.69
267.055	142.69
267.287	158.69
267.52	148.69
267.752	145.69
267.984	148.69
268.216	143.69
268.448	158.69
268.681	130.69
268.913	157.69
269.145	141.69
269.377	150.69
269.609	138.69
269.841	136.69
270.073	141.69
270.306	148.69
270.538	135.69
270.77	139.69
271.002	163.69
271.234	140.69
271.466	152.69
271.698	150.69
271.93	157.69
272.162	149.69
272.394	157.69
272.626	159.69
272.858	159.69
273.09	156.69
273.322	148.69
273.553	152.69
273.785	173.69
274.017	157.69
274.249	167.69
274.481	138.69
274.713	173.69
274.945	158.69
275.176	157.69
275.408	166.69
275.64	154.69
275.872	174.69
276.104	157.69
276.335	158.69
276.567	165.69
276.799	165.69
277.031	164.69
277.262	170.69
277.494	163.69
277.726	156.69
277.957	144.69
278.189	136.69
278.421	154.69
278.652	162.69
278.884	164.69
279.115	166.69
279.347	153.69
279.579	171.69
279.81	159.69
280.042	165.69
280.273	172.69
280.505	159.69
280.736	166.69
280.968	165.69
281.199	164.69
281.431	149.69
281.662	171.69
281.894	164.69
282.125	168.69
282.356	170.69
282.588	166.69
282.819	174.69
283.051	173.69
283.282	169.69
283.513	172.69
283.745	175.69
283.976	164.69
284.207	172.69
284.439	166.69
284.67	191.69
284.901	180.69
285.132	180.69
285.364	171.69
285.595	162.69
285.826	180.69
286.057	169.69
286.288	162.69
286.52	172.69
286.751	169.69
286.982	173.69
287.213	164.69
287.444	166.69
287.675	165.69
287.906	174.69
288.138	169.69
288.369	182.69
288.6	180.69
288.831	182.69
289.062	192.69
289.293	190.69
289.524	167.69
289.755	165.69
289.986	178.69
290.217	178.69
290.448	172.69
290.679	182.69
290.91	187.69
291.141	196.69
291.371	174.69
291.602	183.69
291.833	182.69
292.064	185.69
292.295	177.69
292.526	186.69
292.757	176.69
292.987	170.69
293.218	186.69
293.449	184.69
293.68	178.69
293.91	187.69
294.141	189.69
294.372	189.69
294.603	189.69
294.833	188.69
295.064	192.69
295.295	196.69
295.525	197.69
295.756	214.69
295.987	186.69
296.217	194.69
296.448	181.69
296.679	198.69
296.909	198.69
297.14	199.69
297.37	195.69
297.601	198.69
297.831	189.69
298.062	211.69
298.292	198.69
298.523	185.69
298.753	190.69
298.984	191.69
299.214	177.69
299.445	227.69
299.675	201.69
299.905	181.69
300.136	183.69
300.366	186.69
300.597	187.69
300.827	202.69
301.057	210.69
301.288	199.69
301.518	189.69
301.748	211.69
301.979	203.69
302.209	202.69
302.439	211.69
302.669	188.69
302.9	196.69
303.13	202.69
303.36	191.69
303.59	191.69
303.82	194.69
304.051	212.69
304.281	202.69
304.511	192.69
304.741	197.69
304.971	190.69
305.201	206.69
305.431	199.69
305.661	187.69
305.891	192.69
306.121	202.69
306.352	190.69
306.582	197.69
306.812	199.69
307.042	198.69
307.272	193.69
307.502	191.69
307.731	179.69
307.961	199.69
308.191	198.69
308.421	203.69
308.651	200.69
308.881	195.69
309.111	207.69
309.341	195.69
309.571	194.69
309.8	203.69
310.03	188.69
310.26	207.69
310.49	190.69
310.72	209.69
310.949	202.69
311.179	190.69
311.409	175.69
311.639	210.69
311.868	194.69
312.098	205.69
312.328	196.69
312.557	203.69
312.787	183.69
313.017	220.69
313.246	193.69
313.476	204.69
313.706	207.69
313.935	220.69
314.165	210.69
314.394	214.69
314.624	210.69
314.853	206.69
315.083	214.69
315.312	217.69
315.542	203.69
315.771	213.69
316.001	209.69
316.23	215.69
316.46	201.69
316.689	202.69
316.919	214.69
317.148	205.69
317.377	199.69
317.607	207.69
317.836	209.69
318.065	199.69
318.295	221.69
318.524	202.69
318.753	209.69
318.983	220.69
319.212	202.69
319.441	199.69
319.67	202.69
319.9	219.69
320.129	204.69
320.358	205.69
320.587	220.69
320.816	203.69
321.046	204.69
321.275	221.69
321.504	215.69
321.733	211.69
321.962	208.69
322.191	215.69
322.42	211.69
322.649	195.69
322.878	212.69
323.108	210.69
323.337	207.69
323.566	220.69
323.795	225.69
324.024	222.69
324.253	229.69
324.482	210.69
324.71	214.69
324.939	219.69
325.168	220.69
325.397	214.69
325.626	221.69
325.855	224.69
326.084	213.69
326.313	226.69
326.542	227.69
326.77	221.69
326.999	223.69
327.228	216.69
327.457	236.69
327.686	226.69
327.914	234.69
328.143	216.69
328.372	198.69
328.6	215.69
328.829	220.69
329.058	233.69
329.287	219.69
329.515	230.69
329.744	217.69
329.972	224.69
330.201	247.69
330.43	234.69
330.658	227.69
330.887	216.69
331.115	245.69
331.344	238.69
331.572	260.69
331.801	227.69
332.03	238.69
332.258	229.69
332.486	233.69
332.715	258.69
332.943	270.69
333.172	273.69
333.4	267.69
333.629	279.69
333.857	287.69
334.085	264.69
334.314	277.69
334.542	270.69
334.771	278.69
334.999	271.69
335.227	263.69
335.455	243.69
335.684	267.69
335.912	268.69
336.14	264.69
336.369	251.69
336.597	242.69
336.825	263.69
337.053	255.69
337.281	264.69
337.51	244.69
337.738	239.69
337.966	235.69
338.194	251.69
338.422	246.69
338.65	243.69
338.878	238.69
339.106	225.69
339.334	248.69
339.562	237.69
339.79	232.69
340.018	245.69
340.246	229.69
340.474	229.69
340.702	219.69
340.93	231.69
341.158	240.69
341.386	214.69
341.614	245.69
341.842	227.69
342.07	206.69
342.298	242.69
342.526	227.69
342.754	240.69
342.981	233.69
343.209	242.69
343.437	234.69
343.665	246.69
343.893	278.69
344.12	267.69
344.348	271.69
344.576	268.69
344.804	251.69
345.031	239.69
345.259	246.69
345.487	235.69
345.714	229.69
345.942	229.69
346.17	217.69
346.397	235.69
346.625	239.69
346.853	223.69
347.08	229.69
347.308	221.69
347.535	226.69
347.763	248.69
347.99	226.69
348.218	208.69
348.445	235.69
348.673	236.69
348.9	217.69
349.128	218.69
349.355	238.69
349.583	227.69
349.81	225.69
350.037	213.69
350.265	207.69
350.492	238.69
350.72	229.69
350.947	222.69
351.174	232.69
351.402	223.69
351.629	231.69
351.856	210.69
352.083	221.69
352.311	230.69
352.538	214.69
352.765	212.69
352.992	235.69
353.22	229.69
353.447	226.69
353.674	210.69
353.901	207.69
354.128	210.69
354.355	219.69
354.583	217.69
354.81	235.69
355.037	215.69
355.264	216.69
355.491	224.69
355.718	221.69
355.945	210.69
356.172	211.69
356.399	214.69
356.626	236.69
356.853	228.69
357.08	232.69
357.307	224.69
357.534	226.69
357.761	221.69
357.988	212.69
358.215	224.69
358.441	202.69
358.668	227.69
358.895	226.69
359.122	220.69
359.349	230.69
359.576	223.69
359.802	221.69
360.029	212.69
360.256	213.69
360.483	220.69
360.709	209.69
360.936	219.69
361.163	224.69
361.39	206.69
361.616	227.69
361.843	243.69
362.07	235.69
362.296	215.69
362.523	222.69
362.749	212.69
362.976	230.69
363.203	228.69
363.429	234.69
363.656	216.69
363.882	237.69
364.109	226.69
364.335	213.69
364.562	238.69
364.788	223.69
365.015	210.69
365.241	231.69
365.468	226.69
365.694	227.69
365.92	230.69
366.147	195.69
366.373	232.69
366.599	218.69
366.826	229.69
367.052	234.69
367.278	227.69
367.505	228.69
367.731	213.69
367.957	226.69
368.184	221.69
368.41	238.69
368.636	239.69
368.862	232.69
369.089	230.69
369.315	243.69
369.541	232.69
369.767	240.69
369.993	238.69
370.219	238.69
370.445	246.69
370.672	235.69
370.898	257.69
371.124	243.69
371.35	236.69
371.576	242.69
371.802	240.69
372.028	243.69
372.254	229.69
372.48	234.69
372.706	231.69
372.932	259.69
373.158	237.69
373.384	284.69
373.61	258.69
373.835	250.69
374.061	254.69
374.287	243.69
374.513	251.69
374.739	270.69
374.965	252.69
375.191	252.69
375.416	257.69
375.642	276.69
375.868	265.69
376.094	263.69
376.319	248.69
376.545	267.69
376.771	239.69
376.997	253.69
377.222	253.69
377.448	227.69
377.674	246.69
377.899	247.69
378.125	257.69
378.35	237.69
378.576	262.69
378.802	250.69
379.027	237.69
379.253	246.69
379.478	239.69
379.704	245.69
379.929	247.69
380.155	246.69
380.38	256.69
380.606	269.69
380.831	234.69
381.057	239.69
381.282	246.69
381.507	246.69
381.733	237.69
381.958	249.69
382.184	242.69
382.409	245.69
382.634	262.69
382.86	245.69
383.085	266.69
383.31	284.69
383.535	258.69
383.761	246.69
383.986	279.69
384.211	278.69
384.436	306.69
384.662	279.69
384.887	283.69
385.112	283.69
385.337	307.69
385.562	290.69
385.787	286.69
386.013	306.69
386.238	284.69
386.463	290.69
386.688	295.69
386.913	270.69
387.138	283.69
387.363	292.69
387.588	271.69
387.813	281.69
388.038	283.69
388.263	297.69
388.488	292.69
388.713	302.69
388.938	294.69
389.163	279.69
389.387	284.69
389.612	283.69
389.837	278.69
390.062	280.69
390.287	289.69
390.512	293.69
390.736	291.69
390.961	301.69
391.186	303.69
391.411	290.69
391.636	310.69
391.86	338.69
392.085	337.69
392.31	306.69
392.534	320.69
392.759	307.69
392.984	306.69
393.208	314.69
393.433	320.69
393.658	307.69
393.882	320.69
394.107	326.69
394.331	305.69
394.556	276.69
394.78	327.69
395.005	315.69
395.229	321.69
395.454	322.69
395.678	328.69
395.903	309.69
396.127	317.69
396.352	303.69
396.576	315.69
396.801	301.69
397.025	325.69
397.249	332.69
397.474	328.69
397.698	332.69
397.922	304.69
398.147	337.69
398.371	328.69
398.595	340.69
398.82	342.69
399.044	367.69
399.268	386.69
399.492	440.69
399.717	480.69
399.941	463.69
400.165	435.69
400.389	389.69
400.613	372.69
400.837	375.69
401.062	388.69
401.286	354.69
401.51	354.69
401.734	338.69
401.958	363.69
402.182	358.69
402.406	361.69
402.63	370.69
402.854	359.69
403.078	359.69
403.302	374.69
403.526	395.69
403.75	381.69
403.974	395.69
404.198	390.69
404.422	420.69
404.645	394.69
404.869	386.69
405.093	408.69
405.317	361.69
405.541	374.69
405.765	386.69
405.988	365.69
406.212	394.69
406.436	376.69
406.66	390.69
406.883	407.69
407.107	428.69
407.331	439.69
407.555	456.69
407.778	428.69
408.002	437.69
408.226	406.69
408.449	414.69
408.673	404.69
408.896	415.69
409.12	419.69
409.344	390.69
409.567	410.69
409.791	400.69
410.014	401.69
410.238	382.69
410.461	393.69
410.685	389.69
410.908	379.69
411.132	384.69
411.355	375.69
411.578	372.69
411.802	373.69
412.025	380.69
412.249	384.69
412.472	370.69
412.695	380.69
412.919	364.69
413.142	368.69
413.365	379.69
413.589	364.69
413.812	366.69
414.035	381.69
414.258	359.69
414.482	360.69
414.705	365.69
414.928	367.69
415.151	395.69
415.374	390.69
415.597	363.69
415.821	376.69
416.044	363.69
416.267	382.69
416.49	378.69
416.713	340.69
416.936	372.69
417.159	372.69
417.382	359.69
417.605	363.69
417.828	358.69
418.051	384.69
418.274	378.69
418.497	366.69
418.72	376.69
418.943	384.69
419.166	380.69
419.389	423.69
419.611	410.69
419.834	393.69
420.057	385.69
420.28	360.69
420.503	360.69
420.726	354.69
420.948	360.69
421.171	368.69
421.394	363.69
421.617	354.69
421.839	356.69
422.062	381.69
422.285	355.69
422.507	364.69
422.73	375.69
422.953	358.69
423.175	371.69
423.398	378.69
423.621	386.69
423.843	393.69
424.066	381.69
424.288	357.69
424.511	388.69
424.733	390.69
424.956	372.69
425.178	375.69
425.401	364.69
425.623	346.69
425.846	355.69
426.068	359.69
426.291	341.69
426.513	350.69
426.735	356.69
426.958	351.69
427.18	350.69
427.402	368.69
427.625	341.69
427.847	323.69
428.069	325.69
428.292	347.69
428.514	328.69
428.736	339.69
428.958	339.69
429.181	327.69
429.403	328.69
429.625	350.69
429.847	331.69
430.069	336.69
430.292	342.69
430.514	314.69
430.736	326.69
430.958	316.69
431.18	339.69
431.402	312.69
431.624	336.69
431.846	342.69
432.068	333.69
432.29	331.69
432.512	358.69
432.734	351.69
432.956	328.69
433.178	350.69
433.4	354.69
433.622	354.69
433.844	349.69
434.066	339.69
434.287	362.69
434.509	352.69
434.731	340.69
434.953	387.69
435.175	382.69
435.397	347.69
435.618	346.69
435.84	355.69
436.062	327.69
436.284	328.69
436.505	328.69
436.727	332.69
436.949	345.69
437.17	361.69
437.392	343.69
437.614	342.69
437.835	328.69
438.057	336.69
438.278	337.69
438.5	304.69
438.721	336.69
438.943	340.69
439.165	355.69
439.386	308.69
439.608	344.69
439.829	361.69
440.05	347.69
440.272	339.69
440.493	323.69
440.715	343.69
440.936	366.69
441.158	365.69
441.379	383.69
441.6	394.69
441.822	380.69
442.043	368.69
442.264	368.69
442.486	356.69
442.707	364.69
442.928	380.69
443.149	377.69
443.371	375.69
443.592	380.69
443.813	374.69
444.034	382.69
444.255	397.69
444.476	392.69
444.698	405.69
444.919	425.69
445.14	545.69
445.361	471.69
445.582	401.69
445.803	373.69
446.024	384.69
446.245	390.69
446.466	378.69
446.687	357.69
446.908	356.69
447.129	352.69
447.35	335.69
447.571	339.69
447.792	341.69
448.013	363.69
448.234	345.69
448.455	340.69
448.675	326.69
448.896	333.69
449.117	353.69
449.338	335.69
449.559	354.69
449.779	344.69
450	321.69
450.221	313.69
450.442	330.69
450.662	346.69
450.883	336.69
451.104	342.69
451.324	316.69
451.545	335.69
451.766	360.69
451.986	334.69
452.207	304.69
452.428	314.69
452.648	314.69
452.869	320.69
453.089	336.69
453.31	335.69
453.53	317.69
453.751	315.69
453.971	303.69
454.192	322.69
454.412	315.69
454.633	315.69
454.853	292.69
455.073	319.69
455.294	314.69
455.514	319.69
455.734	318.69
455.955	298.69
456.175	328.69
456.395	301.69
456.616	320.69
456.836	314.69
457.056	294.69
457.276	301.69
457.497	318.69
457.717	324.69
457.937	306.69
458.157	296.69
458.377	310.69
458.598	302.69
458.818	295.69
459.038	333.69
459.258	319.69
459.478	351.69
459.698	354.69
459.918	363.69
460.138	353.69
460.358	387.69
460.578	402.69
460.798	379.69
461.018	387.69
461.238	390.69
461.458	358.69
461.678	376.69
461.898	376.69
462.118	392.69
462.338	415.69
462.558	420.69
462.777	451.69
462.997	452.69
463.217	496.69
463.437	482.69
463.657	447.69
463.876	430.69
464.096	437.69
464.316	436.69
464.536	439.69
464.755	413.69
464.975	391.69
465.195	414.69
465.414	386.69
465.634	357.69
465.854	357.69
466.073	355.69
466.293	357.69
466.512	347.69
466.732	350.69
466.951	341.69
467.171	335.69
467.391	337.69
467.61	336.69
467.829	332.69
468.049	327.69
468.268	317.69
468.488	335.69
468.707	342.69
468.927	318.69
469.146	331.69
469.365	319.69
469.585	323.69
469.804	324.69
470.023	351.69
470.243	336.69
470.462	339.69
470.681	344.69
470.901	350.69
471.12	349.69
471.339	329.69
471.558	333.69
471.777	321.69
471.997	345.69
472.216	326.69
472.435	325.69
472.654	315.69
472.873	309.69
473.092	313.69
473.311	314.69
473.53	315.69
473.749	323.69
473.968	335.69
474.187	308.69
474.406	319.69
474.625	326.69
474.844	340.69
475.063	303.69
475.282	317.69
475.501	302.69
475.72	346.69
475.939	314.69
476.158	325.69
476.377	333.69
476.596	327.69
476.814	331.69
477.033	316.69
477.252	331.69
477.471	326.69
477.69	347.69
477.908	368.69
478.127	357.69
478.346	362.69
478.564	379.69
478.783	341.69
479.002	365.69
479.22	393.69
479.439	384.69
479.658	367.69
479.876	374.69
480.095	378.69
480.313	392.69
480.532	381.69
480.751	397.69
480.969	360.69
481.188	361.69
481.406	347.69
481.624	354.69
481.843	347.69
482.061	350.69
482.28	350.69
482.498	344.69
482.717	351.69
482.935	345.69
483.153	352.69
483.372	363.69
483.59	350.69
483.808	359.69
484.027	359.69
484.245	354.69
484.463	352.69
484.681	364.69
484.9	354.69
485.118	367.69
485.336	364.69
485.554	359.69
485.772	383.69
485.99	359.69
486.209	365.69
486.427	344.69
486.645	363.69
486.863	358.69
487.081	359.69
487.299	371.69
487.517	363.69
487.735	340.69
487.953	370.69
488.171	359.69
488.389	354.69
488.607	364.69
488.825	335.69
489.043	367.69
489.261	375.69
489.479	376.69
489.696	364.69
489.914	353.69
490.132	362.69
490.35	355.69
490.568	351.69
490.786	369.69
491.003	386.69
491.221	374.69
491.439	379.69
491.657	378.69
491.874	373.69
492.092	350.69
492.31	383.69
492.527	389.69
492.745	394.69
492.963	378.69
493.18	380.69
493.398	390.69
493.615	398.69
493.833	367.69
494.05	396.69
494.268	388.69
494.485	382.69
494.703	375.69
494.92	392.69
495.138	387.69
495.355	393.69
495.573	380.69
495.79	394.69
496.008	402.69
496.225	384.69
496.442	386.69
496.66	384.69
496.877	408.69
497.094	393.69
497.312	397.69
497.529	411.69
497.746	421.69
497.963	439.69
498.181	448.69
498.398	431.69
498.615	478.69
498.832	516.69
499.049	529.69
499.267	559.69
499.484	612.69
499.701	674.69
499.918	718.69
500.135	789.69
500.352	906.69
500.569	952.69
500.786	917.69
501.003	853.69
501.22	783.69
501.437	702.69
501.654	627.69
501.871	591.69
502.088	526.69
502.305	518.69
502.522	495.69
502.739	498.69
502.956	470.69
503.172	432.69
503.389	439.69
503.606	428.69
503.823	416.69
504.04	411.69
504.256	423.69
504.473	438.69
504.69	428.69
504.907	411.69
505.123	388.69
505.34	398.69
505.557	361.69
505.773	378.69
505.99	370.69
506.207	351.69
506.423	364.69
506.64	342.69
506.856	340.69
507.073	365.69
507.289	331.69
507.506	326.69
507.722	336.69
507.939	352.69
508.155	314.69
508.372	333.69
508.588	342.69
508.805	318.69
509.021	308.69
509.238	325.69
509.454	326.69
509.67	330.69
509.887	302.69
510.103	309.69
510.319	318.69
510.536	316.69
510.752	308.69
510.968	309.69
511.184	300.69
511.401	315.69
511.617	324.69
511.833	336.69
512.049	326.69
512.265	322.69
512.481	303.69
512.698	286.69
512.914	294.69
513.13	318.69
513.346	306.69
513.562	319.69
513.778	300.69
513.994	308.69
514.21	315.69
514.426	335.69
514.642	317.69
514.858	290.69
515.074	325.69
515.29	342.69
515.506	318.69
515.721	336.69
515.937	333.69
516.153	328.69
516.369	351.69
516.585	349.69
516.801	341.69
517.016	364.69
517.232	350.69
517.448	398.69
517.664	420.69
517.879	434.69
518.095	410.69
518.311	383.69
518.527	377.69
518.742	363.69
518.958	372.69
519.173	368.69
519.389	370.69
519.605	328.69
519.82	340.69
520.036	350.69
520.251	324.69
520.467	310.69
520.682	321.69
520.898	316.69
521.113	320.69
521.329	292.69
521.544	287.69
521.76	296.69
521.975	301.69
522.19	301.69
522.406	308.69
522.621	298.69
522.836	299.69
523.052	312.69
523.267	284.69
523.482	297.69
523.698	280.69
523.913	316.69
524.128	306.69
524.343	283.69
524.559	284.69
524.774	296.69
524.989	290.69
525.204	296.69
525.419	301.69
525.634	280.69
525.849	275.69
526.064	282.69
526.28	282.69
526.495	294.69
526.71	297.69
526.925	286.69
527.14	291.69
527.355	276.69
527.57	280.69
527.785	292.69
527.999	271.69
528.214	274.69
528.429	287.69
528.644	284.69
528.859	282.69
529.074	294.69
529.289	303.69
529.503	287.69
529.718	283.69
529.933	302.69
530.148	280.69
530.363	291.69
530.577	292.69
530.792	287.69
531.007	290.69
531.221	271.69
531.436	267.69
531.651	296.69
531.865	285.69
532.08	283.69
532.295	294.69
532.509	287.69
532.724	306.69
532.938	299.69
533.153	286.69
533.367	297.69
533.582	279.69
533.796	287.69
534.011	283.69
534.225	280.69
534.44	286.69
534.654	278.69
534.868	272.69
535.083	277.69
535.297	277.69
535.511	279.69
535.726	275.69
535.94	278.69
536.154	282.69
536.369	282.69
536.583	265.69
536.797	286.69
537.011	285.69
537.225	277.69
537.44	275.69
537.654	290.69
537.868	282.69
538.082	268.69
538.296	274.69
538.51	280.69
538.724	281.69
538.938	288.69
539.153	276.69
539.367	277.69
539.581	279.69
539.795	264.69
540.009	271.69
540.222	265.69
540.436	266.69
540.65	267.69
540.864	266.69
541.078	275.69
541.292	269.69
541.506	269.69
541.72	295.69
541.934	291.69
542.147	294.69
542.361	290.69
542.575	263.69
542.789	253.69
543.002	265.69
543.216	263.69
543.43	261.69
543.644	256.69
543.857	266.69
544.071	269.69
544.285	264.69
544.498	261.69
544.712	283.69
544.925	270.69
545.139	279.69
545.352	280.69
545.566	273.69
545.779	280.69
545.993	291.69
546.206	278.69
546.42	300.69
546.633	280.69
546.847	280.69
547.06	266.69
547.274	276.69
547.487	268.69
547.7	290.69
547.914	277.69
548.127	292.69
548.34	274.69
548.554	287.69
548.767	290.69
548.98	293.69
549.193	286.69
549.407	276.69
549.62	269.69
549.833	287.69
550.046	274.69
550.259	282.69
550.473	262.69
550.686	266.69
550.899	289.69
551.112	260.69
551.325	268.69
551.538	274.69
551.751	280.69
551.964	258.69
552.177	278.69
552.39	278.69
552.603	285.69
552.816	283.69
553.029	285.69
553.242	272.69
553.455	280.69
553.667	282.69
553.88	283.69
554.093	261.69
554.306	274.69
554.519	272.69
554.732	254.69
554.944	265.69
555.157	258.69
555.37	279.69
555.583	280.69
555.795	256.69
556.008	245.69
556.221	244.69
556.433	249.69
556.646	239.69
556.859	236.69
557.071	262.69
557.284	229.69
557.496	233.69
557.709	235.69
557.921	249.69
558.134	243.69
558.346	235.69
558.559	236.69
558.771	227.69
558.984	254.69
559.196	258.69
559.409	244.69
559.621	228.69
559.833	247.69
560.046	258.69
560.258	215.69
560.47	260.69
560.683	230.69
560.895	225.69
561.107	253.69
561.32	232.69
561.532	224.69
561.744	223.69
561.956	236.69
562.168	249.69
562.381	253.69
562.593	237.69
562.805	246.69
563.017	230.69
563.229	238.69
563.441	237.69
563.653	234.69
563.865	226.69
564.077	242.69
564.289	238.69
564.501	227.69
564.713	261.69
564.925	250.69
565.137	231.69
565.349	270.69
565.561	271.69
565.773	268.69
565.985	285.69
566.197	283.69
566.408	298.69
566.62	321.69
566.832	343.69
567.044	344.69
567.255	321.69
567.467	339.69
567.679	360.69
567.891	374.69
568.102	364.69
568.314	370.69
568.526	336.69
568.737	312.69
568.949	279.69
569.161	280.69
569.372	267.69
569.584	256.69
569.795	263.69
570.007	247.69
570.218	231.69
570.43	234.69
570.641	227.69
570.853	227.69
571.064	234.69
571.276	233.69
571.487	226.69
571.698	236.69
571.91	236.69
572.121	224.69
572.333	218.69
572.544	198.69
572.755	198.69
572.966	206.69
573.178	206.69
573.389	213.69
573.6	202.69
573.811	210.69
574.023	217.69
574.234	198.69
574.445	198.69
574.656	207.69
574.867	197.69
575.078	189.69
575.289	203.69
575.501	203.69
575.712	203.69
575.923	182.69
576.134	184.69
576.345	208.69
576.556	189.69
576.767	190.69
576.978	187.69
577.188	206.69
577.399	198.69
577.61	188.69
577.821	195.69
578.032	186.69
578.243	181.69
578.454	198.69
578.665	190.69
578.875	198.69
579.086	190.69
579.297	191.69
579.508	182.69
579.718	198.69
579.929	189.69
580.14	169.69
580.35	166.69
580.561	189.69
580.772	189.69
580.982	180.69
581.193	169.69
581.403	174.69
581.614	182.69
581.825	171.69
582.035	174.69
582.246	199.69
582.456	160.69
582.667	171.69
582.877	178.69
583.087	184.69
583.298	162.69
583.508	169.69
583.719	166.69
583.929	167.69
584.139	168.69
584.35	160.69
584.56	180.69
584.77	169.69
584.981	168.69
585.191	159.69
585.401	189.69
585.611	188.69
585.821	168.69
586.032	186.69
586.242	166.69
586.452	166.69
586.662	169.69
586.872	189.69
587.082	158.69
587.292	178.69
587.502	170.69
587.713	183.69
587.923	161.69
588.133	172.69
588.343	168.69
588.553	191.69
588.762	186.69
588.972	162.69
589.182	179.69
589.392	164.69
589.602	172.69
589.812	190.69
590.022	184.69
590.232	187.69
590.441	179.69
590.651	168.69
590.861	182.69
591.071	179.69
591.281	166.69
591.49	179.69
591.7	180.69
591.91	182.69
592.119	165.69
592.329	186.69
592.539	177.69
592.748	199.69
592.958	206.69
593.167	195.69
593.377	200.69
593.587	226.69
593.796	211.69
594.006	204.69
594.215	217.69
594.424	219.69
594.634	200.69
594.843	206.69
595.053	171.69
595.262	178.69
595.472	200.69
595.681	189.69
595.89	177.69
596.1	175.69
596.309	179.69
596.518	169.69
596.727	154.69
596.937	166.69
597.146	162.69
597.355	172.69
597.564	166.69
597.774	168.69
597.983	153.69
598.192	156.69
598.401	171.69
598.61	155.69
598.819	157.69
599.028	150.69
599.237	167.69
599.446	159.69
599.655	153.69
599.864	168.69
600.073	171.69
600.282	164.69
600.491	162.69
600.7	158.69
600.909	152.69
601.118	154.69
601.327	150.69
601.536	144.69
601.745	144.69
601.953	166.69
602.162	160.69
602.371	147.69
602.58	152.69
602.789	150.69
602.997	154.69
603.206	155.69
603.415	174.69
603.623	158.69
603.832	156.69
604.041	139.69
604.249	147.69
604.458	150.69
604.666	148.69
604.875	155.69
605.084	158.69
605.292	151.69
605.501	151.69
605.709	159.69
605.918	156.69
606.126	172.69
606.334	143.69
606.543	154.69
606.751	166.69
606.96	157.69
607.168	156.69
607.376	153.69
607.585	140.69
607.793	147.69
608.001	142.69
608.21	141.69
608.418	157.69
608.626	158.69
608.834	148.69
609.043	151.69
609.251	148.69
609.459	144.69
609.667	133.69
609.875	139.69
610.083	155.69
610.291	142.69
610.499	148.69
610.707	158.69
610.916	148.69
611.124	163.69
611.332	145.69
611.54	158.69
611.748	144.69
611.955	158.69
612.163	156.69
612.371	146.69
612.579	150.69
612.787	153.69
612.995	133.69
613.203	141.69
613.411	159.69
613.618	134.69
613.826	136.69
614.034	143.69
614.242	149.69
614.449	151.69
614.657	148.69
614.865	148.69
615.072	139.69
615.28	148.69
615.488	164.69
615.695	157.69
615.903	152.69
616.111	132.69
616.318	145.69
616.526	138.69
616.733	141.69
616.941	142.69
617.148	144.69
617.356	139.69
617.563	148.69
617.771	146.69
617.978	133.69
618.185	158.69
618.393	142.69
618.6	144.69
618.807	131.69
619.015	135.69
619.222	146.69
619.429	153.69
619.637	150.69
619.844	140.69
620.051	136.69
620.258	151.69
620.466	135.69
620.673	136.69
620.88	155.69
621.087	136.69
621.294	146.69
621.501	145.69
621.708	136.69
621.915	142.69
622.122	141.69
622.329	141.69
622.536	158.69
622.743	145.69
622.95	149.69
623.157	130.69
623.364	133.69
623.571	134.69
623.778	127.69
623.985	144.69
624.192	132.69
624.399	135.69
624.606	136.69
624.812	131.69
625.019	139.69
625.226	145.69
625.433	130.69
625.639	137.69
625.846	138.69
626.053	120.69
626.259	140.69
626.466	141.69
626.673	132.69
626.879	136.69
627.086	134.69
627.293	129.69
627.499	133.69
627.706	134.69
627.912	133.69
628.119	130.69
628.325	135.69
628.532	121.69
628.738	116.69
628.945	136.69
629.151	134.69
629.357	120.69
629.564	126.69
629.77	143.69
629.976	121.69
630.183	116.69
630.389	133.69
630.595	137.69
630.802	134.69
631.008	140.69
631.214	120.69
631.42	139.69
631.627	132.69
631.833	121.69
632.039	124.69
632.245	130.69
632.451	140.69
632.657	145.69
632.863	124.69
633.069	112.69
633.275	123.69
633.481	123.69
633.688	100.69
633.893	126.69
634.099	114.69
634.305	111.69
634.511	107.69
634.717	126.69
634.923	123.69
635.129	136.69
635.335	119.69
635.541	116.69
635.747	131.69
635.952	119.69
636.158	115.69
636.364	125.69
636.57	121.69
636.775	131.69
636.981	124.69
637.187	120.69
637.392	126.69
637.598	114.69
637.804	132.69
638.009	109.69
638.215	120.69
638.421	106.69
638.626	110.69
638.832	118.69
639.037	134.69
639.243	124.69
639.448	116.69
639.654	130.69
639.859	126.69
640.065	131.69
640.27	123.69
640.475	120.69
640.681	132.69
640.886	120.69
641.091	123.69
641.297	114.69
641.502	111.69
641.707	113.69
641.913	118.69
642.118	125.69
642.323	107.69
642.528	119.69
642.733	110.69
642.939	127.69
643.144	124.69
643.349	127.69
643.554	124.69
643.759	132.69
643.964	124.69
644.169	117.69
644.374	129.69
644.579	125.69
644.784	123.69
644.989	104.69
645.194	127.69
645.399	116.69
645.604	133.69
645.809	101.69
646.014	121.69
646.219	132.69
646.423	115.69
646.628	118.69
646.833	125.69
647.038	126.69
647.243	120.69
647.447	125.69
647.652	130.69
647.857	122.69
648.062	127.69
648.266	115.69
648.471	112.69
648.676	126.69
648.88	119.69
649.085	116.69
649.289	112.69
649.494	123.69
649.698	118.69
649.903	123.69
650.107	119.69
650.312	130.69
650.516	124.69
650.721	112.69
650.925	118.69
651.13	112.69
651.334	113.69
651.539	102.69
651.743	109.69
651.947	111.69
652.152	117.69
652.356	108.69
652.56	111.69
652.764	102.69
652.969	110.69
653.173	106.69
653.377	100.69
653.581	99.69
653.785	102.69
653.99	115.69
654.194	109.69
654.398	115.69
654.602	110.69
654.806	106.69
655.01	95.69
655.214	102.69
655.418	112.69
655.622	108.69
655.826	102.69
656.03	94.69
656.234	107.69
656.438	112.69
656.642	103.69
656.846	114.69
657.049	114.69
657.253	93.69
657.457	103.69
657.661	97.69
657.865	94.69
658.068	84.69
658.272	96.69
658.476	102.69
658.68	92.69
658.883	99.69
659.087	98.69
659.291	105.69
659.494	96.69
659.698	82.69
659.901	100.69
660.105	92.69
660.309	77.69
660.512	76.69
660.716	92.69
660.919	99.69
661.123	98.69
661.326	91.69
661.53	91.69
661.733	93.69
661.936	92.69
662.14	95.69
662.343	94.69
662.546	80.69
662.75	78.69
662.953	80.69
663.156	78.69
663.36	93.69
663.563	99.69
663.766	89.69
663.969	82.69
664.173	83.69
664.376	79.69
664.579	82.69
664.782	79.69
664.985	78.69
665.188	89.69
665.391	74.69
665.594	73.69
665.797	95.69
666	84.69
666.203	78.69
666.406	88.69
666.609	78.69
666.812	88.69
667.015	91.69
667.218	74.69
667.421	86.69
667.624	81.69
667.827	76.69
668.03	89.69
668.232	74.69
668.435	79.69
668.638	90.69
668.841	82.69
669.043	73.69
669.246	89.69
669.449	95.69
669.651	95.69
669.854	77.69
670.057	93.69
670.259	80.69
670.462	82.69
670.665	91.69
670.867	94.69
671.07	86.69
671.272	83.69
671.475	78.69
671.677	98.69
671.88	92.69
672.082	94.69
672.284	87.69
672.487	94.69
672.689	90.69
672.892	91.69
