Data from Fe(NO3)3@0.025M.TitratingCurve.Agarose3%dH2O.NegLispCup.LampEnergy10.LIBS07252019_HRD10591_16-54-43-335.txt Node
Date: Thu Jul 25 16:54:43 EDT 2019
User: cochatt
Spectrometer: HR+D1059
Trigger mode: 1
Integration Time (sec): 1.000000E-1
Scans to average: 1
Electric dark correction enabled: true
Nonlinearity correction enabled: false
Boxcar width: 0
XAxis mode: Wavelengths
Number of Pixels in Spectrum: 2048
>>>>>Begin Spectral Data<<<<<
223.165	-15.88
223.4	-15.88
223.635	-15.88
223.869	-2.88
224.104	-30.88
224.338	-9.88
224.573	-16.88
224.808	-12.88
225.042	-11.88
225.277	-3.88
225.511	11.12
225.746	10.12
225.98	8.12
226.215	-7.88
226.449	9.12
226.683	19.12
226.918	15.12
227.152	40.12
227.387	25.12
227.621	34.12
227.856	39.12
228.09	42.12
228.324	50.12
228.559	67.12
228.793	63.12
229.027	73.12
229.262	71.12
229.496	67.12
229.73	68.12
229.964	63.12
230.199	66.12
230.433	62.12
230.667	93.12
230.901	98.12
231.136	94.12
231.37	109.12
231.604	91.12
231.838	95.12
232.072	97.12
232.306	71.12
232.541	86.12
232.775	77.12
233.009	93.12
233.243	97.12
233.477	87.12
233.711	90.12
233.945	92.12
234.179	101.12
234.413	96.12
234.647	87.12
234.881	89.12
235.115	108.12
235.349	75.12
235.583	92.12
235.817	97.12
236.051	94.12
236.285	81.12
236.519	100.12
236.753	91.12
236.987	98.12
237.221	100.12
237.455	100.12
237.689	100.12
237.922	84.12
238.156	81.12
238.39	79.12
238.624	86.12
238.858	86.12
239.091	98.12
239.325	92.12
239.559	113.12
239.793	111.12
240.027	100.12
240.26	94.12
240.494	96.12
240.728	96.12
240.961	88.12
241.195	103.12
241.429	92.12
241.662	92.12
241.896	100.12
242.13	106.12
242.363	101.12
242.597	96.12
242.83	83.12
243.064	112.12
243.298	115.12
243.531	101.12
243.765	101.12
243.998	92.12
244.232	101.12
244.465	125.12
244.699	106.12
244.932	101.12
245.166	114.12
245.399	119.12
245.633	104.12
245.866	93.12
246.099	108.12
246.333	100.12
246.566	88.12
246.8	101.12
247.033	99.12
247.266	111.12
247.5	107.12
247.733	105.12
247.966	105.12
248.2	93.12
248.433	109.12
248.666	115.12
248.899	123.12
249.133	104.12
249.366	112.12
249.599	111.12
249.832	101.12
250.066	110.12
250.299	102.12
250.532	97.12
250.765	121.12
250.998	113.12
251.231	119.12
251.465	127.12
251.698	123.12
251.931	96.12
252.164	113.12
252.397	106.12
252.63	120.12
252.863	118.12
253.096	114.12
253.329	120.12
253.562	105.12
253.795	117.12
254.028	113.12
254.261	119.12
254.494	114.12
254.727	118.12
254.96	101.12
255.193	98.12
255.426	117.12
255.659	123.12
255.892	120.12
256.124	93.12
256.357	104.12
256.59	107.12
256.823	125.12
257.056	138.12
257.289	113.12
257.521	116.12
257.754	122.12
257.987	116.12
258.22	119.12
258.452	137.12
258.685	134.12
258.918	123.12
259.151	122.12
259.383	121.12
259.616	128.12
259.849	120.12
260.081	112.12
260.314	120.12
260.547	128.12
260.779	115.12
261.012	127.12
261.244	119.12
261.477	123.12
261.71	123.12
261.942	126.12
262.175	107.12
262.407	131.12
262.64	140.12
262.872	126.12
263.105	130.12
263.337	130.12
263.57	137.12
263.802	145.12
264.035	128.12
264.267	127.12
264.499	127.12
264.732	132.12
264.964	134.12
265.197	119.12
265.429	121.12
265.661	140.12
265.894	136.12
266.126	130.12
266.358	124.12
266.591	125.12
266.823	130.12
267.055	135.12
267.287	136.12
267.52	143.12
267.752	128.12
267.984	141.12
268.216	131.12
268.448	130.12
268.681	140.12
268.913	128.12
269.145	124.12
269.377	156.12
269.609	133.12
269.841	127.12
270.073	138.12
270.306	134.12
270.538	121.12
270.77	139.12
271.002	146.12
271.234	139.12
271.466	145.12
271.698	145.12
271.93	142.12
272.162	129.12
272.394	149.12
272.626	136.12
272.858	147.12
273.09	127.12
273.322	141.12
273.553	151.12
273.785	148.12
274.017	153.12
274.249	159.12
274.481	148.12
274.713	161.12
274.945	159.12
275.176	165.12
275.408	154.12
275.64	149.12
275.872	145.12
276.104	145.12
276.335	158.12
276.567	170.12
276.799	153.12
277.031	139.12
277.262	145.12
277.494	155.12
277.726	159.12
277.957	152.12
278.189	151.12
278.421	164.12
278.652	154.12
278.884	161.12
279.115	150.12
279.347	163.12
279.579	142.12
279.81	156.12
280.042	161.12
280.273	151.12
280.505	143.12
280.736	162.12
280.968	165.12
281.199	165.12
281.431	153.12
281.662	158.12
281.894	165.12
282.125	178.12
282.356	175.12
282.588	164.12
282.819	172.12
283.051	157.12
283.282	160.12
283.513	172.12
283.745	152.12
283.976	169.12
284.207	170.12
284.439	160.12
284.67	161.12
284.901	160.12
285.132	165.12
285.364	163.12
285.595	155.12
285.826	165.12
286.057	172.12
286.288	172.12
286.52	167.12
286.751	166.12
286.982	175.12
287.213	171.12
287.444	167.12
287.675	168.12
287.906	185.12
288.138	188.12
288.369	183.12
288.6	176.12
288.831	175.12
289.062	175.12
289.293	182.12
289.524	181.12
289.755	179.12
289.986	178.12
290.217	182.12
290.448	170.12
290.679	165.12
290.91	165.12
291.141	194.12
291.371	201.12
291.602	181.12
291.833	174.12
292.064	168.12
292.295	189.12
292.526	191.12
292.757	182.12
292.987	187.12
293.218	191.12
293.449	177.12
293.68	168.12
293.91	186.12
294.141	167.12
294.372	192.12
294.603	173.12
294.833	183.12
295.064	181.12
295.295	179.12
295.525	200.12
295.756	194.12
295.987	184.12
296.217	181.12
296.448	184.12
296.679	181.12
296.909	203.12
297.14	182.12
297.37	177.12
297.601	203.12
297.831	186.12
298.062	189.12
298.292	188.12
298.523	192.12
298.753	215.12
298.984	194.12
299.214	195.12
299.445	188.12
299.675	201.12
299.905	183.12
300.136	189.12
300.366	192.12
300.597	205.12
300.827	190.12
301.057	202.12
301.288	193.12
301.518	204.12
301.748	203.12
301.979	199.12
302.209	212.12
302.439	208.12
302.669	221.12
302.9	211.12
303.13	209.12
303.36	194.12
303.59	224.12
303.82	220.12
304.051	201.12
304.281	213.12
304.511	204.12
304.741	207.12
304.971	194.12
305.201	205.12
305.431	208.12
305.661	186.12
305.891	187.12
306.121	215.12
306.352	211.12
306.582	193.12
306.812	197.12
307.042	207.12
307.272	211.12
307.502	195.12
307.731	203.12
307.961	206.12
308.191	211.12
308.421	213.12
308.651	207.12
308.881	207.12
309.111	195.12
309.341	209.12
309.571	208.12
309.8	228.12
310.03	211.12
310.26	215.12
310.49	213.12
310.72	217.12
310.949	208.12
311.179	213.12
311.409	218.12
311.639	206.12
311.868	205.12
312.098	212.12
312.328	213.12
312.557	218.12
312.787	222.12
313.017	231.12
313.246	225.12
313.476	211.12
313.706	215.12
313.935	212.12
314.165	235.12
314.394	207.12
314.624	225.12
314.853	217.12
315.083	235.12
315.312	213.12
315.542	219.12
315.771	220.12
316.001	233.12
316.23	212.12
316.46	226.12
316.689	213.12
316.919	229.12
317.148	227.12
317.377	217.12
317.607	234.12
317.836	225.12
318.065	210.12
318.295	235.12
318.524	236.12
318.753	223.12
318.983	208.12
319.212	227.12
319.441	236.12
319.67	234.12
319.9	228.12
320.129	225.12
320.358	228.12
320.587	219.12
320.816	239.12
321.046	241.12
321.275	231.12
321.504	241.12
321.733	244.12
321.962	240.12
322.191	230.12
322.42	215.12
322.649	245.12
322.878	250.12
323.108	225.12
323.337	221.12
323.566	225.12
323.795	236.12
324.024	220.12
324.253	215.12
324.482	239.12
324.71	234.12
324.939	243.12
325.168	240.12
325.397	232.12
325.626	235.12
325.855	255.12
326.084	216.12
326.313	228.12
326.542	240.12
326.77	255.12
326.999	225.12
327.228	241.12
327.457	236.12
327.686	240.12
327.914	247.12
328.143	236.12
328.372	245.12
328.6	237.12
328.829	245.12
329.058	225.12
329.287	252.12
329.515	249.12
329.744	256.12
329.972	245.12
330.201	245.12
330.43	251.12
330.658	269.12
330.887	240.12
331.115	243.12
331.344	259.12
331.572	243.12
331.801	260.12
332.03	264.12
332.258	260.12
332.486	266.12
332.715	268.12
332.943	274.12
333.172	271.12
333.4	291.12
333.629	296.12
333.857	294.12
334.085	274.12
334.314	307.12
334.542	287.12
334.771	291.12
334.999	285.12
335.227	282.12
335.455	287.12
335.684	283.12
335.912	276.12
336.14	280.12
336.369	277.12
336.597	287.12
336.825	292.12
337.053	285.12
337.281	279.12
337.51	267.12
337.738	277.12
337.966	261.12
338.194	270.12
338.422	273.12
338.65	264.12
338.878	260.12
339.106	263.12
339.334	282.12
339.562	272.12
339.79	263.12
340.018	267.12
340.246	265.12
340.474	241.12
340.702	263.12
340.93	267.12
341.158	266.12
341.386	273.12
341.614	269.12
341.842	283.12
342.07	266.12
342.298	246.12
342.526	273.12
342.754	263.12
342.981	271.12
343.209	281.12
343.437	279.12
343.665	271.12
343.893	284.12
344.12	288.12
344.348	286.12
344.576	274.12
344.804	278.12
345.031	269.12
345.259	256.12
345.487	255.12
345.714	264.12
345.942	261.12
346.17	249.12
346.397	251.12
346.625	256.12
346.853	275.12
347.08	233.12
347.308	267.12
347.535	255.12
347.763	261.12
347.99	258.12
348.218	262.12
348.445	242.12
348.673	255.12
348.9	232.12
349.128	246.12
349.355	263.12
349.583	247.12
349.81	260.12
350.037	257.12
350.265	253.12
350.492	249.12
350.72	237.12
350.947	239.12
351.174	266.12
351.402	245.12
351.629	250.12
351.856	245.12
352.083	252.12
352.311	258.12
352.538	236.12
352.765	255.12
352.992	261.12
353.22	244.12
353.447	243.12
353.674	237.12
353.901	249.12
354.128	243.12
354.355	245.12
354.583	255.12
354.81	253.12
355.037	253.12
355.264	283.12
355.491	266.12
355.718	249.12
355.945	263.12
356.172	247.12
356.399	254.12
356.626	249.12
356.853	255.12
357.08	249.12
357.307	270.12
357.534	250.12
357.761	246.12
357.988	266.12
358.215	255.12
358.441	255.12
358.668	260.12
358.895	247.12
359.122	251.12
359.349	256.12
359.576	268.12
359.802	252.12
360.029	259.12
360.256	265.12
360.483	264.12
360.709	264.12
360.936	265.12
361.163	257.12
361.39	266.12
361.616	248.12
361.843	259.12
362.07	253.12
362.296	260.12
362.523	275.12
362.749	273.12
362.976	242.12
363.203	249.12
363.429	257.12
363.656	267.12
363.882	284.12
364.109	264.12
364.335	254.12
364.562	258.12
364.788	250.12
365.015	256.12
365.241	258.12
365.468	276.12
365.694	257.12
365.92	266.12
366.147	246.12
366.373	268.12
366.599	256.12
366.826	258.12
367.052	259.12
367.278	266.12
367.505	267.12
367.731	257.12
367.957	277.12
368.184	272.12
368.41	265.12
368.636	269.12
368.862	264.12
369.089	274.12
369.315	259.12
369.541	284.12
369.767	275.12
369.993	274.12
370.219	275.12
370.445	269.12
370.672	276.12
370.898	272.12
371.124	284.12
371.35	280.12
371.576	284.12
371.802	281.12
372.028	257.12
372.254	279.12
372.48	279.12
372.706	293.12
372.932	270.12
373.158	285.12
373.384	297.12
373.61	268.12
373.835	280.12
374.061	294.12
374.287	298.12
374.513	291.12
374.739	290.12
374.965	311.12
375.191	292.12
375.416	292.12
375.642	290.12
375.868	270.12
376.094	288.12
376.319	287.12
376.545	287.12
376.771	274.12
376.997	280.12
377.222	292.12
377.448	284.12
377.674	287.12
377.899	283.12
378.125	282.12
378.35	273.12
378.576	278.12
378.802	273.12
379.027	272.12
379.253	278.12
379.478	280.12
379.704	292.12
379.929	295.12
380.155	281.12
380.38	274.12
380.606	275.12
380.831	306.12
381.057	278.12
381.282	269.12
381.507	276.12
381.733	282.12
381.958	274.12
382.184	296.12
382.409	283.12
382.634	300.12
382.86	282.12
383.085	302.12
383.31	292.12
383.535	316.12
383.761	320.12
383.986	297.12
384.211	294.12
384.436	317.12
384.662	305.12
384.887	312.12
385.112	325.12
385.337	310.12
385.562	333.12
385.787	328.12
386.013	320.12
386.238	314.12
386.463	314.12
386.688	332.12
386.913	336.12
387.138	322.12
387.363	321.12
387.588	313.12
387.813	319.12
388.038	325.12
388.263	330.12
388.488	316.12
388.713	321.12
388.938	316.12
389.163	327.12
389.387	331.12
389.612	315.12
389.837	333.12
390.062	308.12
390.287	317.12
390.512	327.12
390.736	328.12
390.961	340.12
391.186	356.12
391.411	343.12
391.636	341.12
391.86	349.12
392.085	334.12
392.31	337.12
392.534	348.12
392.759	345.12
392.984	343.12
393.208	347.12
393.433	351.12
393.658	332.12
393.882	334.12
394.107	341.12
394.331	324.12
394.556	349.12
394.78	314.12
395.005	327.12
395.229	343.12
395.454	353.12
395.678	353.12
395.903	343.12
396.127	373.12
396.352	333.12
396.576	333.12
396.801	358.12
397.025	365.12
397.249	347.12
397.474	346.12
397.698	347.12
397.922	371.12
398.147	367.12
398.371	384.12
398.595	369.12
398.82	409.12
399.044	422.12
399.268	422.12
399.492	457.12
399.717	476.12
399.941	467.12
400.165	464.12
400.389	420.12
400.613	432.12
400.837	434.12
401.062	418.12
401.286	389.12
401.51	385.12
401.734	381.12
401.958	391.12
402.182	393.12
402.406	407.12
402.63	396.12
402.854	394.12
403.078	378.12
403.302	400.12
403.526	400.12
403.75	401.12
403.974	410.12
404.198	391.12
404.422	371.12
404.645	411.12
404.869	408.12
405.093	410.12
405.317	402.12
405.541	408.12
405.765	425.12
405.988	397.12
406.212	420.12
406.436	407.12
406.66	420.12
406.883	407.12
407.107	421.12
407.331	443.12
407.555	471.12
407.778	440.12
408.002	442.12
408.226	447.12
408.449	457.12
408.673	427.12
408.896	411.12
409.12	409.12
409.344	410.12
409.567	417.12
409.791	399.12
410.014	406.12
410.238	407.12
410.461	396.12
410.685	397.12
410.908	392.12
411.132	395.12
411.355	389.12
411.578	381.12
411.802	403.12
412.025	407.12
412.249	383.12
412.472	375.12
412.695	379.12
412.919	389.12
413.142	384.12
413.365	372.12
413.589	401.12
413.812	390.12
414.035	380.12
414.258	379.12
414.482	386.12
414.705	388.12
414.928	397.12
415.151	385.12
415.374	379.12
415.597	373.12
415.821	370.12
416.044	368.12
416.267	383.12
416.49	377.12
416.713	370.12
416.936	392.12
417.159	368.12
417.382	382.12
417.605	351.12
417.828	368.12
418.051	378.12
418.274	359.12
418.497	370.12
418.72	371.12
418.943	376.12
419.166	407.12
419.389	410.12
419.611	404.12
419.834	399.12
420.057	402.12
420.28	375.12
420.503	353.12
420.726	357.12
420.948	372.12
421.171	379.12
421.394	395.12
421.617	373.12
421.839	369.12
422.062	351.12
422.285	353.12
422.507	369.12
422.73	363.12
422.953	397.12
423.175	411.12
423.398	367.12
423.621	371.12
423.843	362.12
424.066	373.12
424.288	381.12
424.511	377.12
424.733	385.12
424.956	373.12
425.178	377.12
425.401	373.12
425.623	373.12
425.846	365.12
426.068	347.12
426.291	375.12
426.513	368.12
426.735	354.12
426.958	367.12
427.18	341.12
427.402	354.12
427.625	369.12
427.847	357.12
428.069	345.12
428.292	351.12
428.514	327.12
428.736	336.12
428.958	343.12
429.181	332.12
429.403	347.12
429.625	359.12
429.847	343.12
430.069	341.12
430.292	360.12
430.514	333.12
430.736	327.12
430.958	345.12
431.18	352.12
431.402	348.12
431.624	344.12
431.846	342.12
432.068	349.12
432.29	352.12
432.512	330.12
432.734	333.12
432.956	343.12
433.178	343.12
433.4	363.12
433.622	333.12
433.844	337.12
434.066	362.12
434.287	357.12
434.509	363.12
434.731	375.12
434.953	377.12
435.175	370.12
435.397	363.12
435.618	341.12
435.84	354.12
436.062	348.12
436.284	336.12
436.505	358.12
436.727	345.12
436.949	343.12
437.17	355.12
437.392	332.12
437.614	344.12
437.835	340.12
438.057	346.12
438.278	316.12
438.5	327.12
438.721	335.12
438.943	338.12
439.165	346.12
439.386	344.12
439.608	332.12
439.829	340.12
440.05	334.12
440.272	353.12
440.493	346.12
440.715	351.12
440.936	364.12
441.158	336.12
441.379	349.12
441.6	371.12
441.822	374.12
442.043	368.12
442.264	367.12
442.486	357.12
442.707	371.12
442.928	359.12
443.149	358.12
443.371	384.12
443.592	362.12
443.813	358.12
444.034	374.12
444.255	385.12
444.476	364.12
444.698	393.12
444.919	390.12
445.14	503.12
445.361	429.12
445.582	375.12
445.803	363.12
446.024	367.12
446.245	352.12
446.466	349.12
446.687	339.12
446.908	351.12
447.129	353.12
447.35	364.12
447.571	332.12
447.792	324.12
448.013	332.12
448.234	317.12
448.455	322.12
448.675	329.12
448.896	316.12
449.117	320.12
449.338	319.12
449.559	300.12
449.779	327.12
450	339.12
450.221	321.12
450.442	314.12
450.662	292.12
450.883	331.12
451.104	321.12
451.324	301.12
451.545	315.12
451.766	298.12
451.986	308.12
452.207	327.12
452.428	314.12
452.648	325.12
452.869	325.12
453.089	301.12
453.31	303.12
453.53	313.12
453.751	301.12
453.971	332.12
454.192	320.12
454.412	293.12
454.633	303.12
454.853	304.12
455.073	295.12
455.294	306.12
455.514	306.12
455.734	315.12
455.955	316.12
456.175	314.12
456.395	308.12
456.616	301.12
456.836	303.12
457.056	297.12
457.276	296.12
457.497	285.12
457.717	307.12
457.937	308.12
458.157	301.12
458.377	306.12
458.598	324.12
458.818	323.12
459.038	329.12
459.258	341.12
459.478	351.12
459.698	350.12
459.918	354.12
460.138	375.12
460.358	371.12
460.578	385.12
460.798	370.12
461.018	362.12
461.238	395.12
461.458	382.12
461.678	406.12
461.898	395.12
462.118	392.12
462.338	397.12
462.558	428.12
462.777	434.12
462.997	417.12
463.217	429.12
463.437	433.12
463.657	417.12
463.876	436.12
464.096	415.12
464.316	398.12
464.536	422.12
464.755	404.12
464.975	399.12
465.195	394.12
465.414	361.12
465.634	357.12
465.854	352.12
466.073	357.12
466.293	359.12
466.512	339.12
466.732	354.12
466.951	340.12
467.171	334.12
467.391	323.12
467.61	335.12
467.829	355.12
468.049	333.12
468.268	346.12
468.488	334.12
468.707	324.12
468.927	327.12
469.146	342.12
469.365	353.12
469.585	334.12
469.804	337.12
470.023	340.12
470.243	344.12
470.462	354.12
470.681	350.12
470.901	338.12
471.12	347.12
471.339	344.12
471.558	333.12
471.777	349.12
471.997	343.12
472.216	345.12
472.435	338.12
472.654	333.12
472.873	326.12
473.092	333.12
473.311	323.12
473.53	341.12
473.749	344.12
473.968	341.12
474.187	351.12
474.406	334.12
474.625	325.12
474.844	322.12
475.063	330.12
475.282	338.12
475.501	330.12
475.72	348.12
475.939	319.12
476.158	333.12
476.377	346.12
476.596	349.12
476.814	363.12
477.033	346.12
477.252	368.12
477.471	356.12
477.69	388.12
477.908	391.12
478.127	377.12
478.346	379.12
478.564	374.12
478.783	376.12
479.002	398.12
479.22	387.12
479.439	401.12
479.658	411.12
479.876	399.12
480.095	391.12
480.313	420.12
480.532	431.12
480.751	403.12
480.969	399.12
481.188	406.12
481.406	402.12
481.624	394.12
481.843	386.12
482.061	386.12
482.28	395.12
482.498	377.12
482.717	375.12
482.935	377.12
483.153	392.12
483.372	380.12
483.59	396.12
483.808	390.12
484.027	388.12
484.245	372.12
484.463	376.12
484.681	380.12
484.9	388.12
485.118	411.12
485.336	387.12
485.554	393.12
485.772	387.12
485.99	393.12
486.209	419.12
486.427	406.12
486.645	378.12
486.863	401.12
487.081	411.12
487.299	377.12
487.517	401.12
487.735	411.12
487.953	385.12
488.171	408.12
488.389	396.12
488.607	414.12
488.825	389.12
489.043	395.12
489.261	408.12
489.479	391.12
489.696	394.12
489.914	400.12
490.132	397.12
490.35	400.12
490.568	407.12
490.786	392.12
491.003	407.12
491.221	413.12
491.439	380.12
491.657	417.12
491.874	411.12
492.092	413.12
492.31	433.12
492.527	399.12
492.745	421.12
492.963	398.12
493.18	421.12
493.398	425.12
493.615	393.12
493.833	414.12
494.05	423.12
494.268	396.12
494.485	413.12
494.703	426.12
494.92	433.12
495.138	397.12
495.355	403.12
495.573	424.12
495.79	443.12
496.008	441.12
496.225	415.12
496.442	441.12
496.66	458.12
496.877	450.12
497.094	451.12
497.312	449.12
497.529	455.12
497.746	466.12
497.963	461.12
498.181	500.12
498.398	537.12
498.615	555.12
498.832	543.12
499.049	592.12
499.267	585.12
499.484	641.12
499.701	674.12
499.918	723.12
500.135	735.12
500.352	795.12
500.569	816.12
500.786	803.12
501.003	779.12
501.22	758.12
501.437	692.12
501.654	647.12
501.871	633.12
502.088	602.12
502.305	583.12
502.522	561.12
502.739	536.12
502.956	525.12
503.172	514.12
503.389	473.12
503.606	472.12
503.823	467.12
504.04	479.12
504.256	490.12
504.473	496.12
504.69	468.12
504.907	449.12
505.123	455.12
505.34	433.12
505.557	397.12
505.773	409.12
505.99	408.12
506.207	390.12
506.423	412.12
506.64	416.12
506.856	378.12
507.073	372.12
507.289	373.12
507.506	392.12
507.722	381.12
507.939	372.12
508.155	386.12
508.372	378.12
508.588	357.12
508.805	369.12
509.021	357.12
509.238	351.12
509.454	348.12
509.67	369.12
509.887	353.12
510.103	362.12
510.319	355.12
510.536	358.12
510.752	330.12
510.968	347.12
511.184	349.12
511.401	355.12
511.617	352.12
511.833	376.12
512.049	367.12
512.265	337.12
512.481	367.12
512.698	367.12
512.914	365.12
513.13	348.12
513.346	333.12
513.562	351.12
513.778	355.12
513.994	362.12
514.21	376.12
514.426	359.12
514.642	358.12
514.858	356.12
515.074	349.12
515.29	376.12
515.506	342.12
515.721	361.12
515.937	385.12
516.153	377.12
516.369	389.12
516.585	394.12
516.801	374.12
517.016	392.12
517.232	401.12
517.448	403.12
517.664	411.12
517.879	409.12
518.095	410.12
518.311	397.12
518.527	401.12
518.742	394.12
518.958	391.12
519.173	403.12
519.389	370.12
519.605	384.12
519.82	373.12
520.036	356.12
520.251	356.12
520.467	368.12
520.682	359.12
520.898	340.12
521.113	349.12
521.329	370.12
521.544	360.12
521.76	346.12
521.975	352.12
522.19	333.12
522.406	319.12
522.621	328.12
522.836	321.12
523.052	338.12
523.267	329.12
523.482	323.12
523.698	333.12
523.913	314.12
524.128	348.12
524.343	330.12
524.559	338.12
524.774	315.12
524.989	332.12
525.204	329.12
525.419	351.12
525.634	317.12
525.849	340.12
526.064	336.12
526.28	327.12
526.495	336.12
526.71	312.12
526.925	320.12
527.14	315.12
527.355	329.12
527.57	325.12
527.785	329.12
527.999	319.12
528.214	327.12
528.429	322.12
528.644	309.12
528.859	340.12
529.074	329.12
529.289	322.12
529.503	319.12
529.718	341.12
529.933	314.12
530.148	320.12
530.363	324.12
530.577	328.12
530.792	321.12
531.007	315.12
531.221	331.12
531.436	312.12
531.651	335.12
531.865	304.12
532.08	328.12
532.295	333.12
532.509	323.12
532.724	321.12
532.938	312.12
533.153	328.12
533.367	316.12
533.582	318.12
533.796	317.12
534.011	299.12
534.225	332.12
534.44	307.12
534.654	325.12
534.868	318.12
535.083	316.12
535.297	298.12
535.511	301.12
535.726	308.12
535.94	283.12
536.154	300.12
536.369	295.12
536.583	299.12
536.797	316.12
537.011	317.12
537.225	313.12
537.44	313.12
537.654	298.12
537.868	303.12
538.082	309.12
538.296	300.12
538.51	300.12
538.724	314.12
538.938	285.12
539.153	291.12
539.367	287.12
539.581	292.12
539.795	303.12
540.009	304.12
540.222	298.12
540.436	301.12
540.65	305.12
540.864	286.12
541.078	293.12
541.292	309.12
541.506	308.12
541.72	292.12
541.934	294.12
542.147	292.12
542.361	305.12
542.575	308.12
542.789	306.12
543.002	283.12
543.216	307.12
543.43	299.12
543.644	281.12
543.857	316.12
544.071	293.12
544.285	309.12
544.498	291.12
544.712	291.12
544.925	299.12
545.139	294.12
545.352	296.12
545.566	286.12
545.779	297.12
545.993	323.12
546.206	293.12
546.42	286.12
546.633	296.12
546.847	306.12
547.06	307.12
547.274	319.12
547.487	306.12
547.7	333.12
547.914	311.12
548.127	321.12
548.34	317.12
548.554	319.12
548.767	316.12
548.98	313.12
549.193	284.12
549.407	309.12
549.62	307.12
549.833	311.12
550.046	302.12
550.259	303.12
550.473	297.12
550.686	315.12
550.899	303.12
551.112	306.12
551.325	294.12
551.538	292.12
551.751	311.12
551.964	282.12
552.177	300.12
552.39	297.12
552.603	309.12
552.816	287.12
553.029	300.12
553.242	310.12
553.455	300.12
553.667	317.12
553.88	317.12
554.093	317.12
554.306	304.12
554.519	293.12
554.732	288.12
554.944	295.12
555.157	279.12
555.37	278.12
555.583	278.12
555.795	275.12
556.008	288.12
556.221	269.12
556.433	278.12
556.646	256.12
556.859	270.12
557.071	276.12
557.284	275.12
557.496	279.12
557.709	263.12
557.921	287.12
558.134	269.12
558.346	269.12
558.559	268.12
558.771	271.12
558.984	264.12
559.196	249.12
559.409	258.12
559.621	266.12
559.833	249.12
560.046	268.12
560.258	257.12
560.47	265.12
560.683	271.12
560.895	273.12
561.107	264.12
561.32	265.12
561.532	252.12
561.744	274.12
561.956	260.12
562.168	258.12
562.381	260.12
562.593	268.12
562.805	264.12
563.017	269.12
563.229	285.12
563.441	276.12
563.653	273.12
563.865	279.12
564.077	268.12
564.289	256.12
564.501	270.12
564.713	281.12
564.925	287.12
565.137	283.12
565.349	287.12
565.561	293.12
565.773	315.12
565.985	317.12
566.197	331.12
566.408	329.12
566.62	333.12
566.832	335.12
567.044	349.12
567.255	363.12
567.467	347.12
567.679	359.12
567.891	374.12
568.102	362.12
568.314	355.12
568.526	356.12
568.737	337.12
568.949	306.12
569.161	307.12
569.372	276.12
569.584	291.12
569.795	288.12
570.007	289.12
570.218	275.12
570.43	265.12
570.641	262.12
570.853	267.12
571.064	245.12
571.276	269.12
571.487	254.12
571.698	257.12
571.91	247.12
572.121	235.12
572.333	241.12
572.544	239.12
572.755	218.12
572.966	231.12
573.178	225.12
573.389	234.12
573.6	239.12
573.811	220.12
574.023	236.12
574.234	229.12
574.445	232.12
574.656	216.12
574.867	223.12
575.078	205.12
575.289	222.12
575.501	243.12
575.712	209.12
575.923	213.12
576.134	215.12
576.345	222.12
576.556	212.12
576.767	217.12
576.978	202.12
577.188	217.12
577.399	218.12
577.61	201.12
577.821	205.12
578.032	211.12
578.243	211.12
578.454	201.12
578.665	207.12
578.875	194.12
579.086	205.12
579.297	213.12
579.508	219.12
579.718	219.12
579.929	209.12
580.14	207.12
580.35	196.12
580.561	202.12
580.772	214.12
580.982	200.12
581.193	204.12
581.403	193.12
581.614	200.12
581.825	199.12
582.035	200.12
582.246	212.12
582.456	204.12
582.667	209.12
582.877	178.12
583.087	194.12
583.298	210.12
583.508	199.12
583.719	206.12
583.929	187.12
584.139	194.12
584.35	208.12
584.56	213.12
584.77	200.12
584.981	195.12
585.191	199.12
585.401	199.12
585.611	188.12
585.821	200.12
586.032	185.12
586.242	193.12
586.452	198.12
586.662	193.12
586.872	205.12
587.082	211.12
587.292	206.12
587.502	200.12
587.713	188.12
587.923	195.12
588.133	181.12
588.343	182.12
588.553	195.12
588.762	194.12
588.972	195.12
589.182	219.12
589.392	194.12
589.602	203.12
589.812	194.12
590.022	208.12
590.232	193.12
590.441	185.12
590.651	195.12
590.861	197.12
591.071	186.12
591.281	201.12
591.49	193.12
591.7	203.12
591.91	201.12
592.119	210.12
592.329	204.12
592.539	197.12
592.748	212.12
592.958	217.12
593.167	202.12
593.377	208.12
593.587	198.12
593.796	216.12
594.006	224.12
594.215	189.12
594.424	211.12
594.634	210.12
594.843	204.12
595.053	200.12
595.262	212.12
595.472	188.12
595.681	188.12
595.89	208.12
596.1	198.12
596.309	195.12
596.518	185.12
596.727	176.12
596.937	199.12
597.146	189.12
597.355	198.12
597.564	172.12
597.774	183.12
597.983	188.12
598.192	175.12
598.401	180.12
598.61	173.12
598.819	175.12
599.028	183.12
599.237	169.12
599.446	175.12
599.655	189.12
599.864	175.12
600.073	167.12
600.282	177.12
600.491	179.12
600.7	181.12
600.909	188.12
601.118	178.12
601.327	168.12
601.536	173.12
601.745	152.12
601.953	168.12
602.162	169.12
602.371	162.12
602.58	168.12
602.789	188.12
602.997	156.12
603.206	187.12
603.415	178.12
603.623	167.12
603.832	151.12
604.041	168.12
604.249	177.12
604.458	165.12
604.666	165.12
604.875	168.12
605.084	162.12
605.292	167.12
605.501	164.12
605.709	162.12
605.918	168.12
606.126	169.12
606.334	178.12
606.543	181.12
606.751	170.12
606.96	159.12
607.168	159.12
607.376	164.12
607.585	162.12
607.793	175.12
608.001	166.12
608.21	160.12
608.418	171.12
608.626	179.12
608.834	182.12
609.043	167.12
609.251	160.12
609.459	168.12
609.667	153.12
609.875	165.12
610.083	161.12
610.291	167.12
610.499	173.12
610.707	157.12
610.916	162.12
611.124	181.12
611.332	164.12
611.54	172.12
611.748	172.12
611.955	155.12
612.163	156.12
612.371	149.12
612.579	166.12
612.787	157.12
612.995	166.12
613.203	177.12
613.411	174.12
613.618	177.12
613.826	169.12
614.034	155.12
614.242	165.12
614.449	163.12
614.657	169.12
614.865	169.12
615.072	161.12
615.28	154.12
615.488	158.12
615.695	157.12
615.903	186.12
616.111	161.12
616.318	162.12
616.526	154.12
616.733	171.12
616.941	146.12
617.148	165.12
617.356	166.12
617.563	151.12
617.771	153.12
617.978	163.12
618.185	151.12
618.393	168.12
618.6	170.12
618.807	168.12
619.015	153.12
619.222	157.12
619.429	147.12
619.637	155.12
619.844	153.12
620.051	147.12
620.258	157.12
620.466	152.12
620.673	161.12
620.88	151.12
621.087	159.12
621.294	142.12
621.501	159.12
621.708	153.12
621.915	154.12
622.122	141.12
622.329	150.12
622.536	155.12
622.743	157.12
622.95	159.12
623.157	156.12
623.364	156.12
623.571	153.12
623.778	137.12
623.985	157.12
624.192	146.12
624.399	164.12
624.606	171.12
624.812	157.12
625.019	152.12
625.226	154.12
625.433	153.12
625.639	129.12
625.846	135.12
626.053	151.12
626.259	146.12
626.466	135.12
626.673	154.12
626.879	137.12
627.086	163.12
627.293	150.12
627.499	131.12
627.706	143.12
627.912	135.12
628.119	143.12
628.325	151.12
628.532	144.12
628.738	138.12
628.945	120.12
629.151	167.12
629.357	123.12
629.564	156.12
629.77	156.12
629.976	142.12
630.183	148.12
630.389	148.12
630.595	139.12
630.802	135.12
631.008	144.12
631.214	149.12
631.42	141.12
631.627	150.12
631.833	141.12
632.039	144.12
632.245	145.12
632.451	152.12
632.657	146.12
632.863	145.12
633.069	141.12
633.275	145.12
633.481	155.12
633.688	144.12
633.893	139.12
634.099	143.12
634.305	131.12
634.511	135.12
634.717	144.12
634.923	125.12
635.129	141.12
635.335	138.12
635.541	133.12
635.747	132.12
635.952	149.12
636.158	136.12
636.364	131.12
636.57	146.12
636.775	148.12
636.981	130.12
637.187	157.12
637.392	147.12
637.598	140.12
637.804	142.12
638.009	132.12
638.215	141.12
638.421	129.12
638.626	138.12
638.832	135.12
639.037	135.12
639.243	131.12
639.448	127.12
639.654	138.12
639.859	130.12
640.065	128.12
640.27	135.12
640.475	133.12
640.681	125.12
640.886	138.12
641.091	127.12
641.297	148.12
641.502	127.12
641.707	145.12
641.913	141.12
642.118	121.12
642.323	142.12
642.528	133.12
642.733	135.12
642.939	130.12
643.144	133.12
643.349	140.12
643.554	147.12
643.759	139.12
643.964	128.12
644.169	119.12
644.374	123.12
644.579	149.12
644.784	151.12
644.989	127.12
645.194	136.12
645.399	133.12
645.604	135.12
645.809	148.12
646.014	135.12
646.219	131.12
646.423	135.12
646.628	138.12
646.833	136.12
647.038	131.12
647.243	126.12
647.447	130.12
647.652	151.12
647.857	142.12
648.062	146.12
648.266	137.12
648.471	147.12
648.676	149.12
648.88	134.12
649.085	143.12
649.289	142.12
649.494	130.12
649.698	132.12
649.903	132.12
650.107	136.12
650.312	131.12
650.516	131.12
650.721	136.12
650.925	135.12
651.13	137.12
651.334	144.12
651.539	146.12
651.743	129.12
651.947	138.12
652.152	142.12
652.356	135.12
652.56	133.12
652.764	128.12
652.969	127.12
653.173	124.12
653.377	127.12
653.581	133.12
653.785	133.12
653.99	144.12
654.194	142.12
654.398	135.12
654.602	129.12
654.806	135.12
655.01	147.12
655.214	140.12
655.418	131.12
655.622	132.12
655.826	123.12
656.03	127.12
656.234	119.12
656.438	123.12
656.642	125.12
656.846	118.12
657.049	141.12
657.253	141.12
657.457	121.12
657.661	114.12
657.865	115.12
658.068	110.12
658.272	117.12
658.476	111.12
658.68	115.12
658.883	115.12
659.087	125.12
659.291	106.12
659.494	107.12
659.698	100.12
659.901	91.12
660.105	105.12
660.309	84.12
660.512	86.12
660.716	95.12
660.919	104.12
661.123	102.12
661.326	82.12
661.53	83.12
661.733	90.12
661.936	74.12
662.14	85.12
662.343	85.12
662.546	91.12
662.75	73.12
662.953	81.12
663.156	89.12
663.36	80.12
663.563	86.12
663.766	88.12
663.969	89.12
664.173	76.12
664.376	87.12
664.579	94.12
664.782	96.12
664.985	74.12
665.188	83.12
665.391	70.12
665.594	77.12
665.797	80.12
666	78.12
666.203	67.12
666.406	70.12
666.609	77.12
666.812	91.12
667.015	85.12
667.218	82.12
667.421	101.12
667.624	82.12
667.827	91.12
668.03	83.12
668.232	77.12
668.435	74.12
668.638	81.12
668.841	75.12
669.043	74.12
669.246	81.12
669.449	79.12
669.651	69.12
669.854	92.12
670.057	70.12
670.259	85.12
670.462	93.12
670.665	74.12
670.867	77.12
671.07	82.12
671.272	85.12
671.475	98.12
671.677	76.12
671.88	88.12
672.082	74.12
672.284	71.12
672.487	77.12
672.689	79.12
672.892	84.12
