Data from NickelSpatula.Lamp.E5.5.P2_HRD10591_11-53-46-547.txt Node
Date: Tue Jul 23 11:53:46 EDT 2019
User: cochatt
Spectrometer: HR+D1059
Trigger mode: 1
Integration Time (sec): 1.000000E-1
Scans to average: 1
Electric dark correction enabled: true
Nonlinearity correction enabled: false
Boxcar width: 0
XAxis mode: Wavelengths
Number of Pixels in Spectrum: 2048
>>>>>Begin Spectral Data<<<<<
223.165	-16.88
223.4	-16.88
223.635	-16.88
223.869	-10.88
224.104	-21.88
224.338	-0.88
224.573	-2.88
224.808	-29.88
225.042	-2.88
225.277	-16.88
225.511	-6.88
225.746	8.12
225.98	1.12
226.215	16.12
226.449	12.12
226.683	18.12
226.918	21.12
227.152	33.12
227.387	29.12
227.621	42.12
227.856	45.12
228.09	43.12
228.324	46.12
228.559	69.12
228.793	55.12
229.027	72.12
229.262	85.12
229.496	79.12
229.73	72.12
229.964	87.12
230.199	109.12
230.433	99.12
230.667	97.12
230.901	102.12
231.136	89.12
231.37	89.12
231.604	96.12
231.838	100.12
232.072	89.12
232.306	113.12
232.541	106.12
232.775	101.12
233.009	104.12
233.243	122.12
233.477	113.12
233.711	114.12
233.945	121.12
234.179	116.12
234.413	125.12
234.647	130.12
234.881	154.12
235.115	151.12
235.349	137.12
235.583	122.12
235.817	111.12
236.051	137.12
236.285	152.12
236.519	141.12
236.753	135.12
236.987	149.12
237.221	141.12
237.455	145.12
237.689	122.12
237.922	137.12
238.156	133.12
238.39	164.12
238.624	188.12
238.858	167.12
239.091	129.12
239.325	139.12
239.559	149.12
239.793	140.12
240.027	146.12
240.26	161.12
240.494	155.12
240.728	179.12
240.961	179.12
241.195	163.12
241.429	172.12
241.662	181.12
241.896	148.12
242.13	141.12
242.363	141.12
242.597	154.12
242.83	153.12
243.064	161.12
243.298	151.12
243.531	177.12
243.765	179.12
243.998	181.12
244.232	168.12
244.465	162.12
244.699	167.12
244.932	186.12
245.166	191.12
245.399	156.12
245.633	154.12
245.866	155.12
246.099	153.12
246.333	199.12
246.566	187.12
246.8	213.12
247.033	199.12
247.266	189.12
247.5	184.12
247.733	173.12
247.966	168.12
248.2	181.12
248.433	192.12
248.666	226.12
248.899	218.12
249.133	205.12
249.366	238.12
249.599	248.12
249.832	232.12
250.066	214.12
250.299	223.12
250.532	191.12
250.765	200.12
250.998	196.12
251.231	182.12
251.465	210.12
251.698	215.12
251.931	198.12
252.164	222.12
252.397	232.12
252.63	273.12
252.863	291.12
253.096	270.12
253.329	259.12
253.562	267.12
253.795	279.12
254.028	304.12
254.261	333.12
254.494	298.12
254.727	273.12
254.96	260.12
255.193	278.12
255.426	279.12
255.659	201.12
255.892	203.12
256.124	202.12
256.357	242.12
256.59	289.12
256.823	283.12
257.056	246.12
257.289	247.12
257.521	239.12
257.754	280.12
257.987	325.12
258.22	276.12
258.452	248.12
258.685	286.12
258.918	310.12
259.151	288.12
259.383	285.12
259.616	343.12
259.849	371.12
260.081	381.12
260.314	395.12
260.547	340.12
260.779	355.12
261.012	397.12
261.244	381.12
261.477	367.12
261.71	340.12
261.942	307.12
262.175	298.12
262.407	298.12
262.64	283.12
262.872	342.12
263.105	359.12
263.337	374.12
263.57	334.12
263.802	259.12
264.035	230.12
264.267	232.12
264.499	199.12
264.732	183.12
264.964	186.12
265.197	174.12
265.429	198.12
265.661	211.12
265.894	213.12
266.126	237.12
266.358	234.12
266.591	292.12
266.823	360.12
267.055	349.12
267.287	318.12
267.52	315.12
267.752	296.12
267.984	346.12
268.216	337.12
268.448	252.12
268.681	259.12
268.913	285.12
269.145	292.12
269.377	313.12
269.609	303.12
269.841	303.12
270.073	302.12
270.306	312.12
270.538	323.12
270.77	323.12
271.002	324.12
271.234	330.12
271.466	359.12
271.698	339.12
271.93	328.12
272.162	330.12
272.394	320.12
272.626	325.12
272.858	320.12
273.09	344.12
273.322	283.12
273.553	263.12
273.785	331.12
274.017	407.12
274.249	513.12
274.481	496.12
274.713	543.12
274.945	611.12
275.176	659.12
275.408	582.12
275.64	541.12
275.872	539.12
276.104	479.12
276.335	400.12
276.567	412.12
276.799	432.12
277.031	472.12
277.262	367.12
277.494	281.12
277.726	283.12
277.957	287.12
278.189	315.12
278.421	332.12
278.652	325.12
278.884	329.12
279.115	296.12
279.347	281.12
279.579	306.12
279.81	291.12
280.042	287.12
280.273	282.12
280.505	262.12
280.736	255.12
280.968	244.12
281.199	278.12
281.431	289.12
281.662	275.12
281.894	279.12
282.125	303.12
282.356	315.12
282.588	320.12
282.819	267.12
283.051	301.12
283.282	351.12
283.513	431.12
283.745	448.12
283.976	474.12
284.207	433.12
284.439	455.12
284.67	420.12
284.901	367.12
285.132	401.12
285.364	422.12
285.595	378.12
285.826	417.12
286.057	428.12
286.288	439.12
286.52	430.12
286.751	440.12
286.982	455.12
287.213	392.12
287.444	386.12
287.675	395.12
287.906	415.12
288.138	354.12
288.369	323.12
288.6	296.12
288.831	332.12
289.062	363.12
289.293	384.12
289.524	362.12
289.755	350.12
289.986	369.12
290.217	354.12
290.448	259.12
290.679	235.12
290.91	227.12
291.141	212.12
291.371	232.12
291.602	247.12
291.833	243.12
292.064	256.12
292.295	290.12
292.526	301.12
292.757	327.12
292.987	342.12
293.218	350.12
293.449	351.12
293.68	397.12
293.91	369.12
294.141	381.12
294.372	369.12
294.603	325.12
294.833	360.12
295.064	436.12
295.295	395.12
295.525	311.12
295.756	268.12
295.987	251.12
296.217	266.12
296.448	251.12
296.679	263.12
296.909	278.12
297.14	291.12
297.37	330.12
297.601	313.12
297.831	257.12
298.062	297.12
298.292	317.12
298.523	353.12
298.753	385.12
298.984	360.12
299.214	276.12
299.445	259.12
299.675	265.12
299.905	244.12
300.136	251.12
300.366	266.12
300.597	256.12
300.827	245.12
301.057	235.12
301.288	238.12
301.518	239.12
301.748	258.12
301.979	299.12
302.209	321.12
302.439	305.12
302.669	301.12
302.9	280.12
303.13	273.12
303.36	270.12
303.59	265.12
303.82	274.12
304.051	305.12
304.281	321.12
304.511	298.12
304.741	253.12
304.971	269.12
305.201	295.12
305.431	279.12
305.661	253.12
305.891	254.12
306.121	254.12
306.352	244.12
306.582	219.12
306.812	208.12
307.042	203.12
307.272	222.12
307.502	193.12
307.731	211.12
307.961	233.12
308.191	216.12
308.421	192.12
308.651	191.12
308.881	198.12
309.111	197.12
309.341	207.12
309.571	219.12
309.8	220.12
310.03	237.12
310.26	243.12
310.49	239.12
310.72	201.12
310.949	205.12
311.179	195.12
311.409	212.12
311.639	228.12
311.868	307.12
312.098	380.12
312.328	433.12
312.557	406.12
312.787	406.12
313.017	359.12
313.246	385.12
313.476	419.12
313.706	363.12
313.935	286.12
314.165	251.12
314.394	238.12
314.624	215.12
314.853	249.12
315.083	255.12
315.312	233.12
315.542	241.12
315.771	219.12
316.001	204.12
316.23	210.12
316.46	202.12
316.689	205.12
316.919	222.12
317.148	221.12
317.377	205.12
317.607	199.12
317.836	206.12
318.065	273.12
318.295	267.12
318.524	258.12
318.753	255.12
318.983	206.12
319.212	225.12
319.441	226.12
319.67	247.12
319.9	288.12
320.129	257.12
320.358	218.12
320.587	218.12
320.816	240.12
321.046	256.12
321.275	293.12
321.504	296.12
321.733	281.12
321.962	270.12
322.191	234.12
322.42	251.12
322.649	245.12
322.878	257.12
323.108	257.12
323.337	242.12
323.566	239.12
323.795	245.12
324.024	237.12
324.253	228.12
324.482	222.12
324.71	258.12
324.939	269.12
325.168	265.12
325.397	219.12
325.626	235.12
325.855	212.12
326.084	216.12
326.313	214.12
326.542	206.12
326.77	210.12
326.999	230.12
327.228	227.12
327.457	228.12
327.686	238.12
327.914	222.12
328.143	210.12
328.372	202.12
328.6	224.12
328.829	215.12
329.058	216.12
329.287	213.12
329.515	219.12
329.744	212.12
329.972	205.12
330.201	195.12
330.43	198.12
330.658	212.12
330.887	238.12
331.115	231.12
331.344	234.12
331.572	234.12
331.801	207.12
332.03	219.12
332.258	228.12
332.486	240.12
332.715	239.12
332.943	232.12
333.172	233.12
333.4	229.12
333.629	275.12
333.857	258.12
334.085	253.12
334.314	278.12
334.542	219.12
334.771	234.12
334.999	241.12
335.227	228.12
335.455	237.12
335.684	242.12
335.912	267.12
336.14	297.12
336.369	294.12
336.597	274.12
336.825	331.12
337.053	356.12
337.281	293.12
337.51	238.12
337.738	228.12
337.966	232.12
338.194	273.12
338.422	260.12
338.65	216.12
338.878	211.12
339.106	241.12
339.334	227.12
339.562	251.12
339.79	241.12
340.018	224.12
340.246	247.12
340.474	277.12
340.702	290.12
340.93	283.12
341.158	305.12
341.386	261.12
341.614	238.12
341.842	236.12
342.07	251.12
342.298	288.12
342.526	305.12
342.754	259.12
342.981	242.12
343.209	234.12
343.437	254.12
343.665	253.12
343.893	298.12
344.12	339.12
344.348	351.12
344.576	326.12
344.804	279.12
345.031	246.12
345.259	241.12
345.487	227.12
345.714	213.12
345.942	246.12
346.17	290.12
346.397	285.12
346.625	233.12
346.853	223.12
347.08	219.12
347.308	239.12
347.535	275.12
347.763	274.12
347.99	234.12
348.218	213.12
348.445	239.12
348.673	243.12
348.9	237.12
349.128	234.12
349.355	258.12
349.583	261.12
349.81	251.12
350.037	232.12
350.265	228.12
350.492	194.12
350.72	219.12
350.947	211.12
351.174	209.12
351.402	232.12
351.629	243.12
351.856	235.12
352.083	249.12
352.311	242.12
352.538	239.12
352.765	254.12
352.992	240.12
353.22	242.12
353.447	232.12
353.674	239.12
353.901	227.12
354.128	214.12
354.355	249.12
354.583	242.12
354.81	241.12
355.037	238.12
355.264	230.12
355.491	249.12
355.718	262.12
355.945	263.12
356.172	235.12
356.399	247.12
356.626	282.12
356.853	334.12
357.08	366.12
357.307	377.12
357.534	313.12
357.761	345.12
357.988	387.12
358.215	443.12
358.441	407.12
358.668	327.12
358.895	320.12
359.122	284.12
359.349	266.12
359.576	307.12
359.802	275.12
360.029	228.12
360.256	230.12
360.483	285.12
360.709	353.12
360.936	340.12
361.163	311.12
361.39	255.12
361.616	229.12
361.843	268.12
362.07	309.12
362.296	285.12
362.523	242.12
362.749	212.12
362.976	249.12
363.203	265.12
363.429	296.12
363.656	234.12
363.882	237.12
364.109	213.12
364.335	244.12
364.562	234.12
364.788	237.12
365.015	277.12
365.241	262.12
365.468	222.12
365.694	199.12
365.92	187.12
366.147	187.12
366.373	185.12
366.599	200.12
366.826	190.12
367.052	194.12
367.278	209.12
367.505	206.12
367.731	206.12
367.957	227.12
368.184	250.12
368.41	227.12
368.636	247.12
368.862	250.12
369.089	225.12
369.315	206.12
369.541	235.12
369.767	191.12
369.993	207.12
370.219	218.12
370.445	225.12
370.672	241.12
370.898	264.12
371.124	260.12
371.35	224.12
371.576	224.12
371.802	224.12
372.028	253.12
372.254	316.12
372.48	256.12
372.706	250.12
372.932	237.12
373.158	269.12
373.384	308.12
373.61	391.12
373.835	388.12
374.061	318.12
374.287	281.12
374.513	325.12
374.739	370.12
374.965	371.12
375.191	379.12
375.416	283.12
375.642	256.12
375.868	270.12
376.094	304.12
376.319	259.12
376.545	282.12
376.771	284.12
376.997	268.12
377.222	230.12
377.448	205.12
377.674	192.12
377.899	192.12
378.125	198.12
378.35	186.12
378.576	199.12
378.802	185.12
379.027	229.12
379.253	233.12
379.478	230.12
379.704	249.12
379.929	255.12
380.155	243.12
380.38	225.12
380.606	233.12
380.831	269.12
381.057	240.12
381.282	240.12
381.507	263.12
381.733	333.12
381.958	326.12
382.184	337.12
382.409	381.12
382.634	366.12
382.86	361.12
383.085	319.12
383.31	264.12
383.535	273.12
383.761	291.12
383.986	249.12
384.211	305.12
384.436	322.12
384.662	260.12
384.887	263.12
385.112	246.12
385.337	244.12
385.562	241.12
385.787	279.12
386.013	289.12
386.238	303.12
386.463	271.12
386.688	250.12
386.913	237.12
387.138	224.12
387.363	240.12
387.588	228.12
387.813	246.12
388.038	259.12
388.263	240.12
388.488	250.12
388.713	277.12
388.938	289.12
389.163	241.12
389.387	219.12
389.612	210.12
389.837	222.12
390.062	234.12
390.287	234.12
390.512	251.12
390.736	243.12
390.961	233.12
391.186	210.12
391.411	202.12
391.636	210.12
391.86	234.12
392.085	265.12
392.31	256.12
392.534	252.12
392.759	230.12
392.984	245.12
393.208	257.12
393.433	214.12
393.658	207.12
393.882	213.12
394.107	203.12
394.331	186.12
394.556	200.12
394.78	203.12
395.005	215.12
395.229	214.12
395.454	213.12
395.678	211.12
395.903	229.12
396.127	193.12
396.352	233.12
396.576	247.12
396.801	223.12
397.025	257.12
397.249	285.12
397.474	226.12
397.698	227.12
397.922	227.12
398.147	242.12
398.371	238.12
398.595	243.12
398.82	253.12
399.044	243.12
399.268	265.12
399.492	277.12
399.717	290.12
399.941	271.12
400.165	283.12
400.389	265.12
400.613	258.12
400.837	253.12
401.062	232.12
401.286	210.12
401.51	196.12
401.734	228.12
401.958	234.12
402.182	234.12
402.406	237.12
402.63	249.12
402.854	268.12
403.078	277.12
403.302	372.12
403.526	360.12
403.75	329.12
403.974	290.12
404.198	294.12
404.422	319.12
404.645	331.12
404.869	373.12
405.093	296.12
405.317	253.12
405.541	252.12
405.765	262.12
405.988	259.12
406.212	259.12
406.436	310.12
406.66	335.12
406.883	279.12
407.107	289.12
407.331	334.12
407.555	325.12
407.778	287.12
408.002	269.12
408.226	288.12
408.449	280.12
408.673	258.12
408.896	245.12
409.12	249.12
409.344	255.12
409.567	246.12
409.791	256.12
410.014	241.12
410.238	237.12
410.461	235.12
410.685	253.12
410.908	233.12
411.132	229.12
411.355	239.12
411.578	233.12
411.802	240.12
412.025	248.12
412.249	234.12
412.472	248.12
412.695	247.12
412.919	251.12
413.142	239.12
413.365	253.12
413.589	263.12
413.812	237.12
414.035	215.12
414.258	226.12
414.482	258.12
414.705	271.12
414.928	245.12
415.151	232.12
415.374	211.12
415.597	227.12
415.821	242.12
416.044	223.12
416.267	244.12
416.49	233.12
416.713	221.12
416.936	233.12
417.159	211.12
417.382	218.12
417.605	217.12
417.828	240.12
418.051	233.12
418.274	263.12
418.497	237.12
418.72	229.12
418.943	257.12
419.166	257.12
419.389	266.12
419.611	256.12
419.834	245.12
420.057	270.12
420.28	275.12
420.503	257.12
420.726	226.12
420.948	220.12
421.171	234.12
421.394	211.12
421.617	239.12
421.839	249.12
422.062	240.12
422.285	225.12
422.507	246.12
422.73	245.12
422.953	248.12
423.175	238.12
423.398	253.12
423.621	269.12
423.843	266.12
424.066	259.12
424.288	253.12
424.511	237.12
424.733	248.12
424.956	250.12
425.178	282.12
425.401	294.12
425.623	372.12
425.846	300.12
426.068	255.12
426.291	273.12
426.513	264.12
426.735	242.12
426.958	255.12
427.18	271.12
427.402	336.12
427.625	372.12
427.847	295.12
428.069	242.12
428.292	235.12
428.514	222.12
428.736	227.12
428.958	243.12
429.181	301.12
429.403	267.12
429.625	232.12
429.847	241.12
430.069	246.12
430.292	236.12
430.514	214.12
430.736	223.12
430.958	288.12
431.18	283.12
431.402	216.12
431.624	208.12
431.846	201.12
432.068	210.12
432.29	224.12
432.512	230.12
432.734	281.12
432.956	269.12
433.178	230.12
433.4	228.12
433.622	222.12
433.844	228.12
434.066	251.12
434.287	253.12
434.509	230.12
434.731	256.12
434.953	239.12
435.175	241.12
435.397	281.12
435.618	246.12
435.84	224.12
436.062	203.12
436.284	220.12
436.505	225.12
436.727	211.12
436.949	224.12
437.17	217.12
437.392	214.12
437.614	213.12
437.835	224.12
438.057	225.12
438.278	237.12
438.5	321.12
438.721	339.12
438.943	251.12
439.165	214.12
439.386	212.12
439.608	222.12
439.829	196.12
440.05	209.12
440.272	237.12
440.493	249.12
440.715	266.12
440.936	255.12
441.158	222.12
441.379	228.12
441.6	258.12
441.822	276.12
442.043	250.12
442.264	233.12
442.486	253.12
442.707	229.12
442.928	233.12
443.149	230.12
443.371	233.12
443.592	234.12
443.813	252.12
444.034	250.12
444.255	235.12
444.476	242.12
444.698	254.12
444.919	241.12
445.14	352.12
445.361	305.12
445.582	254.12
445.803	233.12
446.024	247.12
446.245	251.12
446.466	248.12
446.687	231.12
446.908	226.12
447.129	234.12
447.35	214.12
447.571	217.12
447.792	210.12
448.013	209.12
448.234	211.12
448.455	211.12
448.675	224.12
448.896	205.12
449.117	224.12
449.338	223.12
449.559	233.12
449.779	219.12
450	247.12
450.221	229.12
450.442	223.12
450.662	204.12
450.883	218.12
451.104	220.12
451.324	227.12
451.545	216.12
451.766	229.12
451.986	235.12
452.207	228.12
452.428	211.12
452.648	202.12
452.869	206.12
453.089	221.12
453.31	228.12
453.53	206.12
453.751	200.12
453.971	187.12
454.192	215.12
454.412	219.12
454.633	208.12
454.853	214.12
455.073	185.12
455.294	207.12
455.514	201.12
455.734	201.12
455.955	223.12
456.175	211.12
456.395	201.12
456.616	192.12
456.836	176.12
457.056	187.12
457.276	195.12
457.497	197.12
457.717	205.12
457.937	194.12
458.157	197.12
458.377	183.12
458.598	196.12
458.818	186.12
459.038	208.12
459.258	212.12
459.478	216.12
459.698	248.12
459.918	242.12
460.138	250.12
460.358	264.12
460.578	234.12
460.798	229.12
461.018	254.12
461.238	236.12
461.458	249.12
461.678	245.12
461.898	249.12
462.118	259.12
462.338	257.12
462.558	263.12
462.777	257.12
462.997	268.12
463.217	277.12
463.437	289.12
463.657	265.12
463.876	275.12
464.096	278.12
464.316	259.12
464.536	285.12
464.755	269.12
464.975	268.12
465.195	253.12
465.414	265.12
465.634	240.12
465.854	228.12
466.073	245.12
466.293	238.12
466.512	248.12
466.732	244.12
466.951	259.12
467.171	249.12
467.391	226.12
467.61	201.12
467.829	242.12
468.049	230.12
468.268	233.12
468.488	234.12
468.707	233.12
468.927	247.12
469.146	273.12
469.365	255.12
469.585	230.12
469.804	256.12
470.023	268.12
470.243	249.12
470.462	246.12
470.681	234.12
470.901	239.12
471.12	247.12
471.339	247.12
471.558	244.12
471.777	231.12
471.997	227.12
472.216	283.12
472.435	263.12
472.654	244.12
472.873	244.12
473.092	254.12
473.311	261.12
473.53	228.12
473.749	249.12
473.968	230.12
474.187	227.12
474.406	246.12
474.625	243.12
474.844	232.12
475.063	257.12
475.282	245.12
475.501	281.12
475.72	276.12
475.939	283.12
476.158	271.12
476.377	323.12
476.596	317.12
476.814	328.12
477.033	297.12
477.252	279.12
477.471	250.12
477.69	261.12
477.908	272.12
478.127	304.12
478.346	286.12
478.564	306.12
478.783	287.12
479.002	281.12
479.22	287.12
479.439	323.12
479.658	293.12
479.876	275.12
480.095	293.12
480.313	287.12
480.532	280.12
480.751	284.12
480.969	295.12
481.188	298.12
481.406	293.12
481.624	312.12
481.843	277.12
482.061	261.12
482.28	290.12
482.498	351.12
482.717	344.12
482.935	285.12
483.153	269.12
483.372	248.12
483.59	263.12
483.808	260.12
484.027	266.12
484.245	260.12
484.463	253.12
484.681	257.12
484.9	253.12
485.118	286.12
485.336	275.12
485.554	247.12
485.772	262.12
485.99	290.12
486.209	310.12
486.427	299.12
486.645	294.12
486.863	303.12
487.081	311.12
487.299	331.12
487.517	305.12
487.735	261.12
487.953	295.12
488.171	305.12
488.389	296.12
488.607	270.12
488.825	288.12
489.043	305.12
489.261	322.12
489.479	357.12
489.696	294.12
489.914	273.12
490.132	272.12
490.35	259.12
490.568	258.12
490.786	273.12
491.003	265.12
491.221	277.12
491.439	264.12
491.657	266.12
491.874	279.12
492.092	324.12
492.31	394.12
492.527	374.12
492.745	325.12
492.963	290.12
493.18	298.12
493.398	298.12
493.615	295.12
493.833	285.12
494.05	293.12
494.268	295.12
494.485	284.12
494.703	288.12
494.92	294.12
495.138	267.12
495.355	295.12
495.573	292.12
495.79	309.12
496.008	383.12
496.225	333.12
496.442	299.12
496.66	311.12
496.877	321.12
497.094	322.12
497.312	310.12
497.529	312.12
497.746	295.12
497.963	325.12
498.181	341.12
498.398	359.12
498.615	383.12
498.832	367.12
499.049	394.12
499.267	374.12
499.484	379.12
499.701	386.12
499.918	431.12
500.135	498.12
500.352	508.12
500.569	535.12
500.786	565.12
501.003	520.12
501.22	474.12
501.437	423.12
501.654	395.12
501.871	366.12
502.088	393.12
502.305	367.12
502.522	367.12
502.739	359.12
502.956	318.12
503.172	310.12
503.389	306.12
503.606	291.12
503.823	311.12
504.04	289.12
504.256	311.12
504.473	318.12
504.69	331.12
504.907	336.12
505.123	322.12
505.34	329.12
505.557	321.12
505.773	313.12
505.99	291.12
506.207	331.12
506.423	282.12
506.64	274.12
506.856	286.12
507.073	322.12
507.289	318.12
507.506	313.12
507.722	344.12
507.939	329.12
508.155	307.12
508.372	286.12
508.588	294.12
508.805	291.12
509.021	289.12
509.238	269.12
509.454	265.12
509.67	280.12
509.887	290.12
510.103	311.12
510.319	312.12
510.536	291.12
510.752	267.12
510.968	269.12
511.184	246.12
511.401	257.12
511.617	266.12
511.833	261.12
512.049	284.12
512.265	276.12
512.481	257.12
512.698	299.12
512.914	322.12
513.13	309.12
513.346	274.12
513.562	285.12
513.778	296.12
513.994	273.12
514.21	303.12
514.426	281.12
514.642	260.12
514.858	247.12
515.074	280.12
515.29	316.12
515.506	312.12
515.721	308.12
515.937	297.12
516.153	278.12
516.369	277.12
516.585	288.12
516.801	310.12
517.016	360.12
517.232	354.12
517.448	376.12
517.664	337.12
517.879	311.12
518.095	310.12
518.311	325.12
518.527	326.12
518.742	321.12
518.958	374.12
519.173	325.12
519.389	320.12
519.605	318.12
519.82	354.12
520.036	395.12
520.251	379.12
520.467	389.12
520.682	612.12
520.898	740.12
521.113	710.12
521.329	413.12
521.544	362.12
521.76	341.12
521.975	327.12
522.19	297.12
522.406	319.12
522.621	355.12
522.836	358.12
523.052	360.12
523.267	295.12
523.482	311.12
523.698	309.12
523.913	318.12
524.128	290.12
524.343	291.12
524.559	264.12
524.774	263.12
524.989	273.12
525.204	294.12
525.419	293.12
525.634	286.12
525.849	314.12
526.064	283.12
526.28	304.12
526.495	327.12
526.71	368.12
526.925	328.12
527.14	333.12
527.355	328.12
527.57	291.12
527.785	297.12
527.999	281.12
528.214	267.12
528.429	245.12
528.644	263.12
528.859	237.12
529.074	248.12
529.289	225.12
529.503	246.12
529.718	249.12
529.933	297.12
530.148	338.12
530.363	281.12
530.577	249.12
530.792	253.12
531.007	237.12
531.221	256.12
531.436	265.12
531.651	260.12
531.865	239.12
532.08	258.12
532.295	251.12
532.509	264.12
532.724	282.12
532.938	316.12
533.153	349.12
533.367	299.12
533.582	286.12
533.796	259.12
534.011	272.12
534.225	256.12
534.44	282.12
534.654	290.12
534.868	349.12
535.083	311.12
535.297	274.12
535.511	271.12
535.726	281.12
535.94	267.12
536.154	257.12
536.369	232.12
536.583	240.12
536.797	252.12
537.011	256.12
537.225	268.12
537.44	296.12
537.654	242.12
537.868	258.12
538.082	260.12
538.296	254.12
538.51	272.12
538.724	286.12
538.938	290.12
539.153	248.12
539.367	244.12
539.581	230.12
539.795	250.12
540.009	273.12
540.222	269.12
540.436	257.12
540.65	292.12
540.864	295.12
541.078	303.12
541.292	329.12
541.506	269.12
541.72	245.12
541.934	253.12
542.147	278.12
542.361	260.12
542.575	271.12
542.789	250.12
543.002	239.12
543.216	264.12
543.43	227.12
543.644	250.12
543.857	246.12
544.071	249.12
544.285	242.12
544.498	222.12
544.712	242.12
544.925	257.12
545.139	251.12
545.352	228.12
545.566	221.12
545.779	249.12
545.993	231.12
546.206	233.12
546.42	239.12
546.633	226.12
546.847	222.12
547.06	222.12
547.274	225.12
547.487	233.12
547.7	228.12
547.914	238.12
548.127	265.12
548.34	277.12
548.554	224.12
548.767	255.12
548.98	264.12
549.193	259.12
549.407	253.12
549.62	292.12
549.833	286.12
550.046	295.12
550.259	282.12
550.473	265.12
550.686	235.12
550.899	264.12
551.112	244.12
551.325	263.12
551.538	263.12
551.751	244.12
551.964	244.12
552.177	231.12
552.39	210.12
552.603	221.12
552.816	250.12
553.029	249.12
553.242	240.12
553.455	248.12
553.667	246.12
553.88	261.12
554.093	258.12
554.306	231.12
554.519	221.12
554.732	218.12
554.944	202.12
555.157	205.12
555.37	193.12
555.583	204.12
555.795	211.12
556.008	213.12
556.221	217.12
556.433	222.12
556.646	201.12
556.859	224.12
557.071	230.12
557.284	205.12
557.496	242.12
557.709	212.12
557.921	226.12
558.134	204.12
558.346	211.12
558.559	206.12
558.771	214.12
558.984	214.12
559.196	211.12
559.409	204.12
559.621	217.12
559.833	203.12
560.046	198.12
560.258	197.12
560.47	217.12
560.683	189.12
560.895	193.12
561.107	189.12
561.32	182.12
561.532	192.12
561.744	193.12
561.956	219.12
562.168	180.12
562.381	197.12
562.593	206.12
562.805	204.12
563.017	210.12
563.229	195.12
563.441	166.12
563.653	188.12
563.865	199.12
564.077	188.12
564.289	199.12
564.501	195.12
564.713	222.12
564.925	218.12
565.137	185.12
565.349	193.12
565.561	212.12
565.773	203.12
565.985	218.12
566.197	234.12
566.408	243.12
566.62	230.12
566.832	251.12
567.044	251.12
567.255	294.12
567.467	282.12
567.679	271.12
567.891	275.12
568.102	284.12
568.314	269.12
568.526	252.12
568.737	257.12
568.949	260.12
569.161	230.12
569.372	201.12
569.584	213.12
569.795	216.12
570.007	197.12
570.218	208.12
570.43	206.12
570.641	197.12
570.853	205.12
571.064	196.12
571.276	215.12
571.487	209.12
571.698	171.12
571.91	184.12
572.121	177.12
572.333	186.12
572.544	179.12
572.755	190.12
572.966	190.12
573.178	204.12
573.389	207.12
573.6	188.12
573.811	182.12
574.023	173.12
574.234	190.12
574.445	193.12
574.656	186.12
574.867	178.12
575.078	180.12
575.289	177.12
575.501	197.12
575.712	181.12
575.923	181.12
576.134	163.12
576.345	179.12
576.556	173.12
576.767	174.12
576.978	169.12
577.188	157.12
577.399	164.12
577.61	159.12
577.821	175.12
578.032	177.12
578.243	181.12
578.454	169.12
578.665	184.12
578.875	187.12
579.086	176.12
579.297	184.12
579.508	172.12
579.718	171.12
579.929	170.12
580.14	170.12
580.35	170.12
580.561	153.12
580.772	168.12
580.982	154.12
581.193	167.12
581.403	168.12
581.614	156.12
581.825	168.12
582.035	153.12
582.246	166.12
582.456	158.12
582.667	168.12
582.877	153.12
583.087	153.12
583.298	153.12
583.508	158.12
583.719	158.12
583.929	160.12
584.139	165.12
584.35	152.12
584.56	160.12
584.77	160.12
584.981	160.12
585.191	163.12
585.401	146.12
585.611	169.12
585.821	164.12
586.032	151.12
586.242	165.12
586.452	173.12
586.662	155.12
586.872	170.12
587.082	182.12
587.292	165.12
587.502	132.12
587.713	161.12
587.923	161.12
588.133	171.12
588.343	156.12
588.553	162.12
588.762	152.12
588.972	156.12
589.182	162.12
589.392	163.12
589.602	147.12
589.812	169.12
590.022	163.12
590.232	161.12
590.441	168.12
590.651	163.12
590.861	153.12
591.071	159.12
591.281	171.12
591.49	173.12
591.7	173.12
591.91	139.12
592.119	150.12
592.329	185.12
592.539	184.12
592.748	170.12
592.958	166.12
593.167	156.12
593.377	176.12
593.587	177.12
593.796	178.12
594.006	182.12
594.215	168.12
594.424	177.12
594.634	169.12
594.843	171.12
595.053	179.12
595.262	168.12
595.472	160.12
595.681	159.12
595.89	139.12
596.1	162.12
596.309	163.12
596.518	171.12
596.727	162.12
596.937	151.12
597.146	161.12
597.355	149.12
597.564	151.12
597.774	134.12
597.983	158.12
598.192	151.12
598.401	133.12
598.61	150.12
598.819	161.12
599.028	149.12
599.237	139.12
599.446	143.12
599.655	146.12
599.864	138.12
600.073	138.12
600.282	146.12
600.491	149.12
600.7	130.12
600.909	136.12
601.118	143.12
601.327	136.12
601.536	148.12
601.745	145.12
601.953	160.12
602.162	142.12
602.371	157.12
602.58	153.12
602.789	138.12
602.997	145.12
603.206	122.12
603.415	151.12
603.623	133.12
603.832	143.12
604.041	140.12
604.249	143.12
604.458	151.12
604.666	137.12
604.875	127.12
605.084	138.12
605.292	134.12
605.501	134.12
605.709	149.12
605.918	135.12
606.126	129.12
606.334	149.12
606.543	140.12
606.751	133.12
606.96	140.12
607.168	134.12
607.376	138.12
607.585	131.12
607.793	136.12
608.001	140.12
608.21	133.12
608.418	129.12
608.626	131.12
608.834	134.12
609.043	129.12
609.251	143.12
609.459	137.12
609.667	129.12
609.875	133.12
610.083	143.12
610.291	134.12
610.499	126.12
610.707	151.12
610.916	130.12
611.124	143.12
611.332	145.12
611.54	139.12
611.748	147.12
611.955	138.12
612.163	140.12
612.371	136.12
612.579	138.12
612.787	129.12
612.995	139.12
613.203	129.12
613.411	124.12
613.618	127.12
613.826	126.12
614.034	130.12
614.242	136.12
614.449	141.12
614.657	142.12
614.865	124.12
615.072	132.12
615.28	119.12
615.488	139.12
615.695	142.12
615.903	139.12
616.111	128.12
616.318	145.12
616.526	121.12
616.733	121.12
616.941	117.12
617.148	143.12
617.356	122.12
617.563	140.12
617.771	120.12
617.978	123.12
618.185	121.12
618.393	129.12
618.6	138.12
618.807	139.12
619.015	125.12
619.222	127.12
619.429	133.12
619.637	128.12
619.844	129.12
620.051	131.12
620.258	150.12
620.466	122.12
620.673	132.12
620.88	119.12
621.087	123.12
621.294	115.12
621.501	132.12
621.708	131.12
621.915	127.12
622.122	122.12
622.329	127.12
622.536	145.12
622.743	139.12
622.95	127.12
623.157	130.12
623.364	127.12
623.571	129.12
623.778	106.12
623.985	112.12
624.192	121.12
624.399	138.12
624.606	136.12
624.812	116.12
625.019	130.12
625.226	129.12
625.433	126.12
625.639	129.12
625.846	120.12
626.053	131.12
626.259	130.12
626.466	120.12
626.673	131.12
626.879	132.12
627.086	102.12
627.293	113.12
627.499	119.12
627.706	124.12
627.912	125.12
628.119	125.12
628.325	129.12
628.532	110.12
628.738	131.12
628.945	115.12
629.151	122.12
629.357	122.12
629.564	119.12
629.77	131.12
629.976	110.12
630.183	102.12
630.389	112.12
630.595	127.12
630.802	109.12
631.008	116.12
631.214	113.12
631.42	109.12
631.627	120.12
631.833	117.12
632.039	125.12
632.245	119.12
632.451	104.12
632.657	118.12
632.863	123.12
633.069	106.12
633.275	119.12
633.481	112.12
633.688	106.12
633.893	111.12
634.099	119.12
634.305	110.12
634.511	123.12
634.717	133.12
634.923	101.12
635.129	110.12
635.335	115.12
635.541	110.12
635.747	115.12
635.952	113.12
636.158	114.12
636.364	130.12
636.57	114.12
636.775	114.12
636.981	115.12
637.187	117.12
637.392	114.12
637.598	115.12
637.804	126.12
638.009	115.12
638.215	115.12
638.421	101.12
638.626	100.12
638.832	117.12
639.037	117.12
639.243	116.12
639.448	111.12
639.654	124.12
639.859	104.12
640.065	121.12
640.27	115.12
640.475	109.12
640.681	117.12
640.886	98.12
641.091	121.12
641.297	117.12
641.502	103.12
641.707	111.12
641.913	109.12
642.118	100.12
642.323	119.12
642.528	121.12
642.733	111.12
642.939	102.12
643.144	111.12
643.349	105.12
643.554	94.12
643.759	119.12
643.964	113.12
644.169	106.12
644.374	104.12
644.579	119.12
644.784	103.12
644.989	114.12
645.194	119.12
645.399	107.12
645.604	119.12
645.809	103.12
646.014	101.12
646.219	97.12
646.423	113.12
646.628	112.12
646.833	121.12
647.038	116.12
647.243	119.12
647.447	103.12
647.652	107.12
647.857	127.12
648.062	99.12
648.266	121.12
648.471	119.12
648.676	120.12
648.88	111.12
649.085	121.12
649.289	114.12
649.494	114.12
649.698	118.12
649.903	124.12
650.107	102.12
650.312	112.12
650.516	109.12
650.721	106.12
650.925	105.12
651.13	103.12
651.334	99.12
651.539	99.12
651.743	105.12
651.947	109.12
652.152	96.12
652.356	113.12
652.56	103.12
652.764	104.12
652.969	94.12
653.173	97.12
653.377	112.12
653.581	79.12
653.785	109.12
653.99	101.12
654.194	106.12
654.398	99.12
654.602	97.12
654.806	95.12
655.01	101.12
655.214	91.12
655.418	95.12
655.622	97.12
655.826	99.12
656.03	100.12
656.234	97.12
656.438	101.12
656.642	108.12
656.846	104.12
657.049	100.12
657.253	91.12
657.457	113.12
657.661	87.12
657.865	95.12
658.068	97.12
658.272	96.12
658.476	113.12
658.68	93.12
658.883	87.12
659.087	89.12
659.291	83.12
659.494	99.12
659.698	101.12
659.901	97.12
660.105	73.12
660.309	82.12
660.512	86.12
660.716	87.12
660.919	83.12
661.123	88.12
661.326	92.12
661.53	84.12
661.733	93.12
661.936	88.12
662.14	82.12
662.343	83.12
662.546	89.12
662.75	80.12
662.953	93.12
663.156	66.12
663.36	79.12
663.563	102.12
663.766	94.12
663.969	81.12
664.173	80.12
664.376	95.12
664.579	76.12
664.782	85.12
664.985	89.12
665.188	82.12
665.391	73.12
665.594	77.12
665.797	79.12
666	82.12
666.203	84.12
666.406	85.12
666.609	86.12
666.812	82.12
667.015	91.12
667.218	85.12
667.421	72.12
667.624	75.12
667.827	92.12
668.03	89.12
668.232	87.12
668.435	94.12
668.638	76.12
668.841	82.12
669.043	92.12
669.246	86.12
669.449	79.12
669.651	86.12
669.854	74.12
670.057	88.12
670.259	88.12
670.462	81.12
670.665	83.12
670.867	83.12
671.07	66.12
671.272	92.12
671.475	86.12
671.677	78.12
671.88	87.12
672.082	76.12
672.284	83.12
672.487	93.12
672.689	86.12
672.892	71.12
