Data from NickelSpatula_HRD10591_16-33-33-126.txt Node
Date: Mon Jul 22 16:33:33 EDT 2019
User: cochatt
Spectrometer: HR+D1059
Trigger mode: 1
Integration Time (sec): 1.000000E-1
Scans to average: 1
Electric dark correction enabled: true
Nonlinearity correction enabled: false
Boxcar width: 0
XAxis mode: Wavelengths
Number of Pixels in Spectrum: 2048
>>>>>Begin Spectral Data<<<<<
223.165	-19.38
223.4	-19.38
223.635	-19.38
223.869	-11.38
224.104	-23.38
224.338	-2.38
224.573	-25.38
224.808	-20.38
225.042	-2.38
225.277	-4.38
225.511	6.62
225.746	0.62
225.98	12.62
226.215	1.62
226.449	21.62
226.683	21.62
226.918	15.62
227.152	28.62
227.387	32.62
227.621	34.62
227.856	42.62
228.09	45.62
228.324	44.62
228.559	61.62
228.793	57.62
229.027	60.62
229.262	79.62
229.496	77.62
229.73	85.62
229.964	91.62
230.199	91.62
230.433	102.62
230.667	82.62
230.901	113.62
231.136	85.62
231.37	86.62
231.604	84.62
231.838	90.62
232.072	99.62
232.306	96.62
232.541	100.62
232.775	108.62
233.009	96.62
233.243	90.62
233.477	122.62
233.711	107.62
233.945	112.62
234.179	106.62
234.413	116.62
234.647	125.62
234.881	126.62
235.115	120.62
235.349	121.62
235.583	118.62
235.817	108.62
236.051	122.62
236.285	124.62
236.519	142.62
236.753	119.62
236.987	126.62
237.221	132.62
237.455	122.62
237.689	122.62
237.922	128.62
238.156	132.62
238.39	144.62
238.624	177.62
238.858	139.62
239.091	124.62
239.325	138.62
239.559	128.62
239.793	137.62
240.027	166.62
240.26	150.62
240.494	157.62
240.728	137.62
240.961	151.62
241.195	160.62
241.429	152.62
241.662	150.62
241.896	133.62
242.13	114.62
242.363	126.62
242.597	119.62
242.83	147.62
243.064	117.62
243.298	154.62
243.531	156.62
243.765	163.62
243.998	132.62
244.232	153.62
244.465	161.62
244.699	141.62
244.932	170.62
245.166	150.62
245.399	138.62
245.633	137.62
245.866	140.62
246.099	154.62
246.333	162.62
246.566	159.62
246.8	179.62
247.033	180.62
247.266	154.62
247.5	160.62
247.733	165.62
247.966	150.62
248.2	154.62
248.433	192.62
248.666	199.62
248.899	172.62
249.133	164.62
249.366	194.62
249.599	207.62
249.832	197.62
250.066	196.62
250.299	197.62
250.532	194.62
250.765	188.62
250.998	189.62
251.231	160.62
251.465	176.62
251.698	172.62
251.931	180.62
252.164	198.62
252.397	198.62
252.63	196.62
252.863	232.62
253.096	240.62
253.329	240.62
253.562	237.62
253.795	251.62
254.028	260.62
254.261	288.62
254.494	256.62
254.727	242.62
254.96	226.62
255.193	231.62
255.426	242.62
255.659	196.62
255.892	187.62
256.124	189.62
256.357	202.62
256.59	229.62
256.823	242.62
257.056	205.62
257.289	196.62
257.521	205.62
257.754	238.62
257.987	277.62
258.22	229.62
258.452	232.62
258.685	233.62
258.918	243.62
259.151	254.62
259.383	257.62
259.616	314.62
259.849	309.62
260.081	299.62
260.314	344.62
260.547	280.62
260.779	294.62
261.012	345.62
261.244	324.62
261.477	314.62
261.71	292.62
261.942	268.62
262.175	265.62
262.407	267.62
262.64	257.62
262.872	299.62
263.105	324.62
263.337	327.62
263.57	316.62
263.802	229.62
264.035	218.62
264.267	215.62
264.499	182.62
264.732	164.62
264.964	165.62
265.197	174.62
265.429	183.62
265.661	190.62
265.894	195.62
266.126	192.62
266.358	220.62
266.591	243.62
266.823	292.62
267.055	299.62
267.287	260.62
267.52	267.62
267.752	258.62
267.984	295.62
268.216	285.62
268.448	237.62
268.681	234.62
268.913	252.62
269.145	278.62
269.377	270.62
269.609	285.62
269.841	269.62
270.073	250.62
270.306	295.62
270.538	299.62
270.77	289.62
271.002	295.62
271.234	314.62
271.466	312.62
271.698	279.62
271.93	268.62
272.162	274.62
272.394	259.62
272.626	276.62
272.858	292.62
273.09	295.62
273.322	241.62
273.553	220.62
273.785	260.62
274.017	352.62
274.249	400.62
274.481	433.62
274.713	483.62
274.945	546.62
275.176	572.62
275.408	511.62
275.64	458.62
275.872	461.62
276.104	408.62
276.335	332.62
276.567	368.62
276.799	370.62
277.031	393.62
277.262	337.62
277.494	248.62
277.726	246.62
277.957	274.62
278.189	285.62
278.421	302.62
278.652	289.62
278.884	272.62
279.115	251.62
279.347	240.62
279.579	255.62
279.81	250.62
280.042	261.62
280.273	246.62
280.505	242.62
280.736	215.62
280.968	204.62
281.199	246.62
281.431	264.62
281.662	262.62
281.894	249.62
282.125	251.62
282.356	271.62
282.588	284.62
282.819	247.62
283.051	284.62
283.282	305.62
283.513	384.62
283.745	397.62
283.976	384.62
284.207	364.62
284.439	378.62
284.67	361.62
284.901	320.62
285.132	374.62
285.364	372.62
285.595	360.62
285.826	372.62
286.057	388.62
286.288	360.62
286.52	382.62
286.751	397.62
286.982	401.62
287.213	349.62
287.444	322.62
287.675	356.62
287.906	340.62
288.138	299.62
288.369	266.62
288.6	256.62
288.831	280.62
289.062	312.62
289.293	347.62
289.524	314.62
289.755	328.62
289.986	328.62
290.217	299.62
290.448	233.62
290.679	207.62
290.91	203.62
291.141	208.62
291.371	226.62
291.602	202.62
291.833	204.62
292.064	205.62
292.295	244.62
292.526	277.62
292.757	270.62
292.987	314.62
293.218	312.62
293.449	312.62
293.68	342.62
293.91	330.62
294.141	346.62
294.372	308.62
294.603	270.62
294.833	320.62
295.064	366.62
295.295	364.62
295.525	282.62
295.756	238.62
295.987	200.62
296.217	227.62
296.448	231.62
296.679	230.62
296.909	239.62
297.14	247.62
297.37	260.62
297.601	279.62
297.831	251.62
298.062	244.62
298.292	267.62
298.523	295.62
298.753	321.62
298.984	292.62
299.214	263.62
299.445	201.62
299.675	220.62
299.905	200.62
300.136	211.62
300.366	221.62
300.597	225.62
300.827	219.62
301.057	193.62
301.288	211.62
301.518	234.62
301.748	233.62
301.979	256.62
302.209	268.62
302.439	260.62
302.669	254.62
302.9	243.62
303.13	230.62
303.36	218.62
303.59	221.62
303.82	253.62
304.051	231.62
304.281	262.62
304.511	283.62
304.741	246.62
304.971	244.62
305.201	264.62
305.431	240.62
305.661	214.62
305.891	214.62
306.121	213.62
306.352	199.62
306.582	179.62
306.812	193.62
307.042	172.62
307.272	178.62
307.502	176.62
307.731	187.62
307.961	192.62
308.191	196.62
308.421	200.62
308.651	176.62
308.881	167.62
309.111	186.62
309.341	193.62
309.571	188.62
309.8	191.62
310.03	221.62
310.26	209.62
310.49	202.62
310.72	188.62
310.949	176.62
311.179	182.62
311.409	189.62
311.639	224.62
311.868	262.62
312.098	340.62
312.328	366.62
312.557	374.62
312.787	385.62
313.017	309.62
313.246	329.62
313.476	366.62
313.706	311.62
313.935	262.62
314.165	226.62
314.394	178.62
314.624	203.62
314.853	195.62
315.083	227.62
315.312	206.62
315.542	190.62
315.771	199.62
316.001	190.62
316.23	178.62
316.46	185.62
316.689	186.62
316.919	196.62
317.148	194.62
317.377	184.62
317.607	186.62
317.836	202.62
318.065	215.62
318.295	232.62
318.524	228.62
318.753	216.62
318.983	202.62
319.212	208.62
319.441	198.62
319.67	211.62
319.9	245.62
320.129	231.62
320.358	194.62
320.587	194.62
320.816	211.62
321.046	212.62
321.275	249.62
321.504	241.62
321.733	220.62
321.962	233.62
322.191	209.62
322.42	210.62
322.649	221.62
322.878	229.62
323.108	231.62
323.337	233.62
323.566	221.62
323.795	233.62
324.024	217.62
324.253	206.62
324.482	191.62
324.71	202.62
324.939	221.62
325.168	220.62
325.397	187.62
325.626	189.62
325.855	188.62
326.084	192.62
326.313	170.62
326.542	172.62
326.77	176.62
326.999	190.62
327.228	192.62
327.457	188.62
327.686	220.62
327.914	187.62
328.143	184.62
328.372	183.62
328.6	192.62
328.829	184.62
329.058	194.62
329.287	201.62
329.515	186.62
329.744	178.62
329.972	183.62
330.201	168.62
330.43	184.62
330.658	180.62
330.887	194.62
331.115	206.62
331.344	221.62
331.572	199.62
331.801	202.62
332.03	191.62
332.258	195.62
332.486	204.62
332.715	200.62
332.943	206.62
333.172	198.62
333.4	217.62
333.629	215.62
333.857	237.62
334.085	232.62
334.314	224.62
334.542	204.62
334.771	209.62
334.999	209.62
335.227	194.62
335.455	204.62
335.684	219.62
335.912	236.62
336.14	263.62
336.369	256.62
336.597	229.62
336.825	278.62
337.053	297.62
337.281	246.62
337.51	194.62
337.738	193.62
337.966	198.62
338.194	225.62
338.422	212.62
338.65	218.62
338.878	198.62
339.106	192.62
339.334	214.62
339.562	216.62
339.79	205.62
340.018	203.62
340.246	198.62
340.474	237.62
340.702	240.62
340.93	235.62
341.158	250.62
341.386	202.62
341.614	210.62
341.842	227.62
342.07	221.62
342.298	253.62
342.526	279.62
342.754	219.62
342.981	225.62
343.209	198.62
343.437	222.62
343.665	246.62
343.893	244.62
344.12	271.62
344.348	308.62
344.576	300.62
344.804	244.62
345.031	216.62
345.259	192.62
345.487	207.62
345.714	200.62
345.942	208.62
346.17	226.62
346.397	226.62
346.625	200.62
346.853	223.62
347.08	197.62
347.308	204.62
347.535	242.62
347.763	228.62
347.99	196.62
348.218	187.62
348.445	199.62
348.673	198.62
348.9	213.62
349.128	231.62
349.355	216.62
349.583	203.62
349.81	216.62
350.037	197.62
350.265	186.62
350.492	163.62
350.72	168.62
350.947	169.62
351.174	183.62
351.402	190.62
351.629	184.62
351.856	195.62
352.083	187.62
352.311	181.62
352.538	204.62
352.765	222.62
352.992	215.62
353.22	179.62
353.447	205.62
353.674	202.62
353.901	197.62
354.128	192.62
354.355	195.62
354.583	200.62
354.81	201.62
355.037	228.62
355.264	216.62
355.491	217.62
355.718	215.62
355.945	212.62
356.172	215.62
356.399	205.62
356.626	229.62
356.853	275.62
357.08	297.62
357.307	331.62
357.534	242.62
357.761	258.62
357.988	281.62
358.215	339.62
358.441	324.62
358.668	280.62
358.895	277.62
359.122	237.62
359.349	232.62
359.576	247.62
359.802	220.62
360.029	197.62
360.256	196.62
360.483	226.62
360.709	276.62
360.936	285.62
361.163	266.62
361.39	205.62
361.616	193.62
361.843	233.62
362.07	265.62
362.296	237.62
362.523	197.62
362.749	202.62
362.976	209.62
363.203	224.62
363.429	224.62
363.656	211.62
363.882	180.62
364.109	196.62
364.335	213.62
364.562	199.62
364.788	198.62
365.015	249.62
365.241	216.62
365.468	182.62
365.694	189.62
365.92	154.62
366.147	168.62
366.373	165.62
366.599	158.62
366.826	183.62
367.052	161.62
367.278	176.62
367.505	162.62
367.731	188.62
367.957	208.62
368.184	189.62
368.41	201.62
368.636	190.62
368.862	206.62
369.089	211.62
369.315	182.62
369.541	186.62
369.767	167.62
369.993	173.62
370.219	164.62
370.445	179.62
370.672	204.62
370.898	208.62
371.124	211.62
371.35	172.62
371.576	183.62
371.802	182.62
372.028	212.62
372.254	223.62
372.48	209.62
372.706	201.62
372.932	201.62
373.158	210.62
373.384	247.62
373.61	282.62
373.835	307.62
374.061	234.62
374.287	222.62
374.513	241.62
374.739	278.62
374.965	294.62
375.191	295.62
375.416	231.62
375.642	192.62
375.868	214.62
376.094	236.62
376.319	218.62
376.545	220.62
376.771	222.62
376.997	203.62
377.222	181.62
377.448	164.62
377.674	164.62
377.899	177.62
378.125	163.62
378.35	164.62
378.576	181.62
378.802	183.62
379.027	191.62
379.253	211.62
379.478	204.62
379.704	203.62
379.929	200.62
380.155	206.62
380.38	193.62
380.606	183.62
380.831	227.62
381.057	220.62
381.282	187.62
381.507	224.62
381.733	260.62
381.958	269.62
382.184	282.62
382.409	283.62
382.634	282.62
382.86	301.62
383.085	265.62
383.31	202.62
383.535	230.62
383.761	228.62
383.986	222.62
384.211	262.62
384.436	260.62
384.662	195.62
384.887	213.62
385.112	206.62
385.337	215.62
385.562	184.62
385.787	217.62
386.013	240.62
386.238	240.62
386.463	197.62
386.688	192.62
386.913	208.62
387.138	188.62
387.363	197.62
387.588	219.62
387.813	204.62
388.038	209.62
388.263	208.62
388.488	210.62
388.713	225.62
388.938	244.62
389.163	209.62
389.387	185.62
389.612	204.62
389.837	204.62
390.062	198.62
390.287	216.62
390.512	231.62
390.736	185.62
390.961	181.62
391.186	193.62
391.411	186.62
391.636	193.62
391.86	210.62
392.085	220.62
392.31	214.62
392.534	192.62
392.759	213.62
392.984	211.62
393.208	205.62
393.433	197.62
393.658	206.62
393.882	195.62
394.107	171.62
394.331	173.62
394.556	169.62
394.78	193.62
395.005	171.62
395.229	183.62
395.454	195.62
395.678	180.62
395.903	201.62
396.127	190.62
396.352	210.62
396.576	210.62
396.801	214.62
397.025	226.62
397.249	243.62
397.474	201.62
397.698	188.62
397.922	211.62
398.147	194.62
398.371	196.62
398.595	224.62
398.82	217.62
399.044	210.62
399.268	212.62
399.492	230.62
399.717	229.62
399.941	247.62
400.165	229.62
400.389	220.62
400.613	218.62
400.837	220.62
401.062	205.62
401.286	190.62
401.51	208.62
401.734	206.62
401.958	196.62
402.182	200.62
402.406	198.62
402.63	218.62
402.854	204.62
403.078	231.62
403.302	269.62
403.526	308.62
403.75	271.62
403.974	232.62
404.198	213.62
404.422	243.62
404.645	276.62
404.869	291.62
405.093	258.62
405.317	216.62
405.541	190.62
405.765	208.62
405.988	205.62
406.212	218.62
406.436	240.62
406.66	263.62
406.883	228.62
407.107	237.62
407.331	256.62
407.555	237.62
407.778	230.62
408.002	222.62
408.226	237.62
408.449	227.62
408.673	221.62
408.896	223.62
409.12	200.62
409.344	217.62
409.567	213.62
409.791	185.62
410.014	202.62
410.238	192.62
410.461	193.62
410.685	205.62
410.908	213.62
411.132	202.62
411.355	218.62
411.578	197.62
411.802	206.62
412.025	216.62
412.249	208.62
412.472	224.62
412.695	188.62
412.919	226.62
413.142	221.62
413.365	199.62
413.589	223.62
413.812	198.62
414.035	188.62
414.258	192.62
414.482	212.62
414.705	225.62
414.928	205.62
415.151	193.62
415.374	190.62
415.597	198.62
415.821	192.62
416.044	190.62
416.267	188.62
416.49	198.62
416.713	182.62
416.936	197.62
417.159	196.62
417.382	204.62
417.605	200.62
417.828	206.62
418.051	204.62
418.274	177.62
418.497	203.62
418.72	202.62
418.943	219.62
419.166	213.62
419.389	224.62
419.611	211.62
419.834	220.62
420.057	230.62
420.28	229.62
420.503	211.62
420.726	184.62
420.948	209.62
421.171	204.62
421.394	217.62
421.617	194.62
421.839	198.62
422.062	189.62
422.285	194.62
422.507	204.62
422.73	222.62
422.953	216.62
423.175	209.62
423.398	220.62
423.621	221.62
423.843	216.62
424.066	204.62
424.288	211.62
424.511	207.62
424.733	194.62
424.956	208.62
425.178	218.62
425.401	244.62
425.623	290.62
425.846	243.62
426.068	210.62
426.291	231.62
426.513	214.62
426.735	205.62
426.958	201.62
427.18	216.62
427.402	287.62
427.625	280.62
427.847	234.62
428.069	200.62
428.292	188.62
428.514	190.62
428.736	184.62
428.958	219.62
429.181	246.62
429.403	227.62
429.625	209.62
429.847	196.62
430.069	202.62
430.292	190.62
430.514	193.62
430.736	195.62
430.958	225.62
431.18	225.62
431.402	195.62
431.624	182.62
431.846	180.62
432.068	180.62
432.29	177.62
432.512	193.62
432.734	240.62
432.956	224.62
433.178	185.62
433.4	193.62
433.622	198.62
433.844	186.62
434.066	226.62
434.287	205.62
434.509	198.62
434.731	201.62
434.953	179.62
435.175	189.62
435.397	229.62
435.618	209.62
435.84	180.62
436.062	189.62
436.284	183.62
436.505	168.62
436.727	176.62
436.949	162.62
437.17	176.62
437.392	180.62
437.614	188.62
437.835	166.62
438.057	185.62
438.278	203.62
438.5	258.62
438.721	270.62
438.943	203.62
439.165	169.62
439.386	164.62
439.608	188.62
439.829	180.62
440.05	203.62
440.272	179.62
440.493	211.62
440.715	236.62
440.936	198.62
441.158	186.62
441.379	189.62
441.6	203.62
441.822	233.62
442.043	195.62
442.264	194.62
442.486	193.62
442.707	180.62
442.928	178.62
443.149	184.62
443.371	195.62
443.592	201.62
443.813	198.62
444.034	189.62
444.255	197.62
444.476	205.62
444.698	202.62
444.919	211.62
445.14	317.62
445.361	249.62
445.582	221.62
445.803	224.62
446.024	216.62
446.245	223.62
446.466	218.62
446.687	204.62
446.908	190.62
447.129	186.62
447.35	169.62
447.571	183.62
447.792	182.62
448.013	168.62
448.234	180.62
448.455	173.62
448.675	153.62
448.896	164.62
449.117	175.62
449.338	167.62
449.559	176.62
449.779	190.62
450	180.62
450.221	189.62
450.442	197.62
450.662	176.62
450.883	185.62
451.104	172.62
451.324	175.62
451.545	162.62
451.766	183.62
451.986	167.62
452.207	172.62
452.428	164.62
452.648	185.62
452.869	174.62
453.089	195.62
453.31	180.62
453.53	167.62
453.751	171.62
453.971	150.62
454.192	170.62
454.412	193.62
454.633	180.62
454.853	168.62
455.073	168.62
455.294	160.62
455.514	163.62
455.734	175.62
455.955	184.62
456.175	190.62
456.395	188.62
456.616	192.62
456.836	163.62
457.056	169.62
457.276	181.62
457.497	149.62
457.717	165.62
457.937	169.62
458.157	169.62
458.377	163.62
458.598	174.62
458.818	169.62
459.038	187.62
459.258	187.62
459.478	188.62
459.698	185.62
459.918	195.62
460.138	194.62
460.358	195.62
460.578	190.62
460.798	195.62
461.018	197.62
461.238	196.62
461.458	193.62
461.678	206.62
461.898	198.62
462.118	191.62
462.338	203.62
462.558	213.62
462.777	220.62
462.997	234.62
463.217	232.62
463.437	234.62
463.657	229.62
463.876	217.62
464.096	229.62
464.316	219.62
464.536	209.62
464.755	217.62
464.975	241.62
465.195	213.62
465.414	222.62
465.634	215.62
465.854	205.62
466.073	196.62
466.293	182.62
466.512	197.62
466.732	221.62
466.951	230.62
467.171	210.62
467.391	190.62
467.61	192.62
467.829	200.62
468.049	187.62
468.268	176.62
468.488	180.62
468.707	176.62
468.927	201.62
469.146	228.62
469.365	213.62
469.585	198.62
469.804	200.62
470.023	229.62
470.243	206.62
470.462	201.62
470.681	188.62
470.901	192.62
471.12	198.62
471.339	213.62
471.558	199.62
471.777	189.62
471.997	197.62
472.216	233.62
472.435	213.62
472.654	198.62
472.873	196.62
473.092	201.62
473.311	206.62
473.53	200.62
473.749	195.62
473.968	203.62
474.187	212.62
474.406	202.62
474.625	197.62
474.844	201.62
475.063	206.62
475.282	202.62
475.501	218.62
475.72	256.62
475.939	227.62
476.158	228.62
476.377	252.62
476.596	282.62
476.814	301.62
477.033	245.62
477.252	215.62
477.471	202.62
477.69	203.62
477.908	222.62
478.127	231.62
478.346	213.62
478.564	250.62
478.783	231.62
479.002	218.62
479.22	247.62
479.439	260.62
479.658	245.62
479.876	240.62
480.095	235.62
480.313	266.62
480.532	231.62
480.751	213.62
480.969	231.62
481.188	243.62
481.406	262.62
481.624	236.62
481.843	215.62
482.061	217.62
482.28	232.62
482.498	296.62
482.717	288.62
482.935	251.62
483.153	205.62
483.372	218.62
483.59	206.62
483.808	220.62
484.027	203.62
484.245	202.62
484.463	189.62
484.681	199.62
484.9	205.62
485.118	244.62
485.336	230.62
485.554	212.62
485.772	198.62
485.99	243.62
486.209	249.62
486.427	229.62
486.645	232.62
486.863	240.62
487.081	217.62
487.299	270.62
487.517	256.62
487.735	229.62
487.953	233.62
488.171	244.62
488.389	228.62
488.607	219.62
488.825	229.62
489.043	249.62
489.261	287.62
489.479	312.62
489.696	226.62
489.914	218.62
490.132	225.62
490.35	221.62
490.568	228.62
490.786	222.62
491.003	220.62
491.221	221.62
491.439	206.62
491.657	219.62
491.874	225.62
492.092	280.62
492.31	324.62
492.527	318.62
492.745	269.62
492.963	240.62
493.18	248.62
493.398	243.62
493.615	260.62
493.833	250.62
494.05	240.62
494.268	251.62
494.485	233.62
494.703	226.62
494.92	217.62
495.138	231.62
495.355	236.62
495.573	243.62
495.79	261.62
496.008	338.62
496.225	296.62
496.442	237.62
496.66	233.62
496.877	268.62
497.094	276.62
497.312	274.62
497.529	235.62
497.746	251.62
497.963	254.62
498.181	278.62
498.398	286.62
498.615	304.62
498.832	320.62
499.049	331.62
499.267	327.62
499.484	310.62
499.701	353.62
499.918	354.62
500.135	403.62
500.352	418.62
500.569	429.62
500.786	436.62
501.003	410.62
501.22	380.62
501.437	354.62
501.654	330.62
501.871	322.62
502.088	310.62
502.305	307.62
502.522	303.62
502.739	316.62
502.956	261.62
503.172	289.62
503.389	256.62
503.606	240.62
503.823	257.62
504.04	250.62
504.256	272.62
504.473	273.62
504.69	271.62
504.907	273.62
505.123	257.62
505.34	282.62
505.557	252.62
505.773	245.62
505.99	244.62
506.207	259.62
506.423	248.62
506.64	229.62
506.856	224.62
507.073	260.62
507.289	256.62
507.506	253.62
507.722	264.62
507.939	260.62
508.155	287.62
508.372	248.62
508.588	244.62
508.805	240.62
509.021	243.62
509.238	243.62
509.454	232.62
509.67	212.62
509.887	226.62
510.103	257.62
510.319	247.62
510.536	237.62
510.752	206.62
510.968	229.62
511.184	204.62
511.401	208.62
511.617	203.62
511.833	197.62
512.049	213.62
512.265	227.62
512.481	217.62
512.698	237.62
512.914	256.62
513.13	252.62
513.346	221.62
513.562	236.62
513.778	225.62
513.994	232.62
514.21	233.62
514.426	228.62
514.642	236.62
514.858	216.62
515.074	222.62
515.29	253.62
515.506	286.62
515.721	259.62
515.937	223.62
516.153	218.62
516.369	226.62
516.585	243.62
516.801	275.62
517.016	316.62
517.232	284.62
517.448	272.62
517.664	272.62
517.879	266.62
518.095	280.62
518.311	267.62
518.527	274.62
518.742	272.62
518.958	320.62
519.173	262.62
519.389	274.62
519.605	272.62
519.82	267.62
520.036	301.62
520.251	316.62
520.467	288.62
520.682	476.62
520.898	584.62
521.113	544.62
521.329	345.62
521.544	289.62
521.76	276.62
521.975	264.62
522.19	247.62
522.406	266.62
522.621	266.62
522.836	291.62
523.052	300.62
523.267	245.62
523.482	252.62
523.698	268.62
523.913	257.62
524.128	229.62
524.343	218.62
524.559	219.62
524.774	210.62
524.989	236.62
525.204	227.62
525.419	245.62
525.634	247.62
525.849	249.62
526.064	229.62
526.28	246.62
526.495	280.62
526.71	325.62
526.925	269.62
527.14	296.62
527.355	273.62
527.57	246.62
527.785	259.62
527.999	240.62
528.214	226.62
528.429	203.62
528.644	208.62
528.859	197.62
529.074	202.62
529.289	221.62
529.503	215.62
529.718	221.62
529.933	261.62
530.148	280.62
530.363	209.62
530.577	212.62
530.792	197.62
531.007	212.62
531.221	223.62
531.436	196.62
531.651	203.62
531.865	198.62
532.08	193.62
532.295	200.62
532.509	209.62
532.724	232.62
532.938	278.62
533.153	322.62
533.367	251.62
533.582	247.62
533.796	234.62
534.011	221.62
534.225	198.62
534.44	221.62
534.654	233.62
534.868	273.62
535.083	231.62
535.297	210.62
535.511	206.62
535.726	228.62
535.94	203.62
536.154	191.62
536.369	201.62
536.583	214.62
536.797	201.62
537.011	216.62
537.225	235.62
537.44	246.62
537.654	216.62
537.868	216.62
538.082	217.62
538.296	214.62
538.51	211.62
538.724	220.62
538.938	215.62
539.153	198.62
539.367	204.62
539.581	209.62
539.795	217.62
540.009	233.62
540.222	214.62
540.436	226.62
540.65	244.62
540.864	242.62
541.078	233.62
541.292	302.62
541.506	217.62
541.72	212.62
541.934	210.62
542.147	210.62
542.361	212.62
542.575	219.62
542.789	220.62
543.002	200.62
543.216	237.62
543.43	198.62
543.644	221.62
543.857	182.62
544.071	203.62
544.285	194.62
544.498	179.62
544.712	185.62
544.925	202.62
545.139	188.62
545.352	186.62
545.566	186.62
545.779	226.62
545.993	198.62
546.206	184.62
546.42	203.62
546.633	193.62
546.847	190.62
547.06	188.62
547.274	192.62
547.487	198.62
547.7	189.62
547.914	213.62
548.127	231.62
548.34	233.62
548.554	202.62
548.767	215.62
548.98	230.62
549.193	183.62
549.407	216.62
549.62	249.62
549.833	232.62
550.046	223.62
550.259	243.62
550.473	214.62
550.686	210.62
550.899	215.62
551.112	208.62
551.325	214.62
551.538	228.62
551.751	195.62
551.964	205.62
552.177	212.62
552.39	178.62
552.603	191.62
552.816	200.62
553.029	200.62
553.242	196.62
553.455	214.62
553.667	217.62
553.88	226.62
554.093	198.62
554.306	185.62
554.519	197.62
554.732	190.62
554.944	173.62
555.157	167.62
555.37	183.62
555.583	177.62
555.795	184.62
556.008	171.62
556.221	188.62
556.433	181.62
556.646	168.62
556.859	163.62
557.071	180.62
557.284	176.62
557.496	193.62
557.709	183.62
557.921	191.62
558.134	178.62
558.346	169.62
558.559	158.62
558.771	182.62
558.984	187.62
559.196	176.62
559.409	171.62
559.621	178.62
559.833	153.62
560.046	166.62
560.258	168.62
560.47	168.62
560.683	168.62
560.895	172.62
561.107	163.62
561.32	160.62
561.532	180.62
561.744	190.62
561.956	172.62
562.168	174.62
562.381	172.62
562.593	183.62
562.805	176.62
563.017	166.62
563.229	179.62
563.441	164.62
563.653	156.62
563.865	151.62
564.077	170.62
564.289	177.62
564.501	162.62
564.713	167.62
564.925	165.62
565.137	164.62
565.349	154.62
565.561	174.62
565.773	185.62
565.985	176.62
566.197	194.62
566.408	180.62
566.62	208.62
566.832	193.62
567.044	204.62
567.255	208.62
567.467	232.62
567.679	214.62
567.891	225.62
568.102	220.62
568.314	199.62
568.526	215.62
568.737	199.62
568.949	201.62
569.161	177.62
569.372	184.62
569.584	180.62
569.795	160.62
570.007	163.62
570.218	193.62
570.43	184.62
570.641	180.62
570.853	163.62
571.064	169.62
571.276	178.62
571.487	173.62
571.698	183.62
571.91	169.62
572.121	157.62
572.333	170.62
572.544	159.62
572.755	155.62
572.966	150.62
573.178	154.62
573.389	164.62
573.6	162.62
573.811	163.62
574.023	165.62
574.234	145.62
574.445	158.62
574.656	146.62
574.867	149.62
575.078	166.62
575.289	161.62
575.501	167.62
575.712	153.62
575.923	148.62
576.134	150.62
576.345	164.62
576.556	147.62
576.767	148.62
576.978	147.62
577.188	151.62
577.399	152.62
577.61	150.62
577.821	177.62
578.032	145.62
578.243	152.62
578.454	167.62
578.665	157.62
578.875	145.62
579.086	150.62
579.297	164.62
579.508	156.62
579.718	159.62
579.929	140.62
580.14	150.62
580.35	147.62
580.561	146.62
580.772	137.62
580.982	146.62
581.193	135.62
581.403	143.62
581.614	134.62
581.825	120.62
582.035	139.62
582.246	137.62
582.456	132.62
582.667	156.62
582.877	141.62
583.087	125.62
583.298	121.62
583.508	147.62
583.719	126.62
583.929	136.62
584.139	140.62
584.35	136.62
584.56	133.62
584.77	141.62
584.981	142.62
585.191	143.62
585.401	129.62
585.611	138.62
585.821	131.62
586.032	141.62
586.242	134.62
586.452	130.62
586.662	122.62
586.872	127.62
587.082	138.62
587.292	160.62
587.502	131.62
587.713	149.62
587.923	130.62
588.133	155.62
588.343	142.62
588.553	140.62
588.762	145.62
588.972	141.62
589.182	142.62
589.392	153.62
589.602	139.62
589.812	152.62
590.022	165.62
590.232	147.62
590.441	144.62
590.651	130.62
590.861	146.62
591.071	139.62
591.281	138.62
591.49	126.62
591.7	126.62
591.91	146.62
592.119	132.62
592.329	137.62
592.539	121.62
592.748	148.62
592.958	134.62
593.167	136.62
593.377	148.62
593.587	170.62
593.796	149.62
594.006	141.62
594.215	146.62
594.424	149.62
594.634	139.62
594.843	140.62
595.053	140.62
595.262	127.62
595.472	122.62
595.681	142.62
595.89	129.62
596.1	134.62
596.309	141.62
596.518	125.62
596.727	124.62
596.937	114.62
597.146	137.62
597.355	121.62
597.564	127.62
597.774	139.62
597.983	128.62
598.192	118.62
598.401	116.62
598.61	121.62
598.819	138.62
599.028	127.62
599.237	120.62
599.446	117.62
599.655	117.62
599.864	104.62
600.073	117.62
600.282	130.62
600.491	124.62
600.7	132.62
600.909	128.62
601.118	124.62
601.327	108.62
601.536	126.62
601.745	134.62
601.953	132.62
602.162	130.62
602.371	145.62
602.58	143.62
602.789	130.62
602.997	135.62
603.206	128.62
603.415	118.62
603.623	123.62
603.832	124.62
604.041	120.62
604.249	108.62
604.458	120.62
604.666	123.62
604.875	117.62
605.084	128.62
605.292	118.62
605.501	124.62
605.709	116.62
605.918	128.62
606.126	119.62
606.334	116.62
606.543	120.62
606.751	120.62
606.96	110.62
607.168	102.62
607.376	120.62
607.585	117.62
607.793	108.62
608.001	128.62
608.21	122.62
608.418	120.62
608.626	131.62
608.834	105.62
609.043	106.62
609.251	113.62
609.459	126.62
609.667	109.62
609.875	132.62
610.083	136.62
610.291	127.62
610.499	132.62
610.707	127.62
610.916	129.62
611.124	119.62
611.332	114.62
611.54	113.62
611.748	125.62
611.955	119.62
612.163	116.62
612.371	102.62
612.579	118.62
612.787	108.62
612.995	118.62
613.203	114.62
613.411	107.62
613.618	114.62
613.826	124.62
614.034	122.62
614.242	114.62
614.449	118.62
614.657	115.62
614.865	118.62
615.072	120.62
615.28	114.62
615.488	122.62
615.695	123.62
615.903	108.62
616.111	115.62
616.318	106.62
616.526	118.62
616.733	125.62
616.941	114.62
617.148	109.62
617.356	109.62
617.563	118.62
617.771	112.62
617.978	114.62
618.185	126.62
618.393	103.62
618.6	106.62
618.807	103.62
619.015	130.62
619.222	112.62
619.429	118.62
619.637	116.62
619.844	114.62
620.051	105.62
620.258	114.62
620.466	122.62
620.673	114.62
620.88	99.62
621.087	100.62
621.294	106.62
621.501	108.62
621.708	117.62
621.915	116.62
622.122	92.62
622.329	104.62
622.536	103.62
622.743	118.62
622.95	122.62
623.157	115.62
623.364	118.62
623.571	115.62
623.778	110.62
623.985	112.62
624.192	104.62
624.399	115.62
624.606	108.62
624.812	110.62
625.019	118.62
625.226	123.62
625.433	122.62
625.639	108.62
625.846	112.62
626.053	117.62
626.259	112.62
626.466	96.62
626.673	119.62
626.879	121.62
627.086	107.62
627.293	99.62
627.499	104.62
627.706	114.62
627.912	109.62
628.119	117.62
628.325	105.62
628.532	105.62
628.738	113.62
628.945	117.62
629.151	114.62
629.357	106.62
629.564	110.62
629.77	119.62
629.976	115.62
630.183	96.62
630.389	109.62
630.595	108.62
630.802	98.62
631.008	116.62
631.214	109.62
631.42	98.62
631.627	111.62
631.833	112.62
632.039	95.62
632.245	93.62
632.451	93.62
632.657	98.62
632.863	105.62
633.069	112.62
633.275	99.62
633.481	99.62
633.688	98.62
633.893	138.62
634.099	121.62
634.305	108.62
634.511	103.62
634.717	91.62
634.923	107.62
635.129	115.62
635.335	112.62
635.541	112.62
635.747	121.62
635.952	105.62
636.158	107.62
636.364	89.62
636.57	97.62
636.775	97.62
636.981	116.62
637.187	103.62
637.392	104.62
637.598	102.62
637.804	100.62
638.009	105.62
638.215	99.62
638.421	106.62
638.626	99.62
638.832	99.62
639.037	109.62
639.243	107.62
639.448	119.62
639.654	96.62
639.859	100.62
640.065	103.62
640.27	101.62
640.475	98.62
640.681	102.62
640.886	104.62
641.091	92.62
641.297	100.62
641.502	92.62
641.707	119.62
641.913	102.62
642.118	96.62
642.323	107.62
642.528	102.62
642.733	100.62
642.939	109.62
643.144	97.62
643.349	100.62
643.554	112.62
643.759	117.62
643.964	82.62
644.169	105.62
644.374	108.62
644.579	94.62
644.784	104.62
644.989	102.62
645.194	100.62
645.399	117.62
645.604	112.62
645.809	102.62
646.014	106.62
646.219	98.62
646.423	104.62
646.628	101.62
646.833	84.62
647.038	100.62
647.243	93.62
647.447	106.62
647.652	108.62
647.857	104.62
648.062	103.62
648.266	93.62
648.471	100.62
648.676	121.62
648.88	110.62
649.085	106.62
649.289	94.62
649.494	84.62
649.698	110.62
649.903	93.62
650.107	108.62
650.312	104.62
650.516	88.62
650.721	104.62
650.925	100.62
651.13	98.62
651.334	96.62
651.539	94.62
651.743	99.62
651.947	103.62
652.152	100.62
652.356	85.62
652.56	101.62
652.764	88.62
652.969	99.62
653.173	89.62
653.377	98.62
653.581	99.62
653.785	105.62
653.99	85.62
654.194	91.62
654.398	100.62
654.602	90.62
654.806	86.62
655.01	92.62
655.214	81.62
655.418	86.62
655.622	99.62
655.826	92.62
656.03	102.62
656.234	83.62
656.438	104.62
656.642	94.62
656.846	87.62
657.049	87.62
657.253	99.62
657.457	94.62
657.661	89.62
657.865	84.62
658.068	84.62
658.272	83.62
658.476	89.62
658.68	85.62
658.883	85.62
659.087	79.62
659.291	81.62
659.494	76.62
659.698	88.62
659.901	92.62
660.105	89.62
660.309	82.62
660.512	74.62
660.716	84.62
660.919	98.62
661.123	90.62
661.326	89.62
661.53	90.62
661.733	90.62
661.936	76.62
662.14	94.62
662.343	81.62
662.546	82.62
662.75	92.62
662.953	91.62
663.156	80.62
663.36	84.62
663.563	96.62
663.766	76.62
663.969	92.62
664.173	77.62
664.376	88.62
664.579	85.62
664.782	74.62
664.985	86.62
665.188	91.62
665.391	92.62
665.594	96.62
665.797	99.62
666	77.62
666.203	79.62
666.406	88.62
666.609	88.62
666.812	77.62
667.015	70.62
667.218	85.62
667.421	80.62
667.624	86.62
667.827	88.62
668.03	66.62
668.232	84.62
668.435	71.62
668.638	81.62
668.841	91.62
669.043	83.62
669.246	71.62
669.449	75.62
669.651	88.62
669.854	81.62
670.057	84.62
670.259	81.62
670.462	76.62
670.665	82.62
670.867	85.62
671.07	81.62
671.272	66.62
671.475	71.62
671.677	83.62
671.88	71.62
672.082	94.62
672.284	93.62
672.487	96.62
672.689	87.62
672.892	64.62
