Data from NiCl2@0.25M.TitratingCurve.Agarose3%dH2O.NegLispCup.LampEnergy10.LIBS07252019_HRD10591_18-26-16-573.txt Node
Date: Thu Jul 25 18:26:16 EDT 2019
User: cochatt
Spectrometer: HR+D1059
Trigger mode: 1
Integration Time (sec): 1.000000E-1
Scans to average: 1
Electric dark correction enabled: true
Nonlinearity correction enabled: false
Boxcar width: 0
XAxis mode: Wavelengths
Number of Pixels in Spectrum: 2048
>>>>>Begin Spectral Data<<<<<
223.165	-11.81
223.4	-11.81
223.635	-11.81
223.869	-12.81
224.104	-30.81
224.338	-7.81
224.573	-21.81
224.808	-5.81
225.042	-11.81
225.277	6.19
225.511	-10.81
225.746	0.19
225.98	-5.81
226.215	12.19
226.449	7.19
226.683	38.19
226.918	20.19
227.152	35.19
227.387	35.19
227.621	19.19
227.856	47.19
228.09	52.19
228.324	45.19
228.559	57.19
228.793	76.19
229.027	113.19
229.262	109.19
229.496	124.19
229.73	132.19
229.964	141.19
230.199	157.19
230.433	153.19
230.667	157.19
230.901	157.19
231.136	158.19
231.37	157.19
231.604	153.19
231.838	178.19
232.072	161.19
232.306	178.19
232.541	156.19
232.775	163.19
233.009	160.19
233.243	160.19
233.477	168.19
233.711	174.19
233.945	179.19
234.179	177.19
234.413	176.19
234.647	167.19
234.881	175.19
235.115	188.19
235.349	192.19
235.583	182.19
235.817	164.19
236.051	162.19
236.285	173.19
236.519	178.19
236.753	182.19
236.987	180.19
237.221	188.19
237.455	188.19
237.689	179.19
237.922	182.19
238.156	200.19
238.39	203.19
238.624	193.19
238.858	184.19
239.091	212.19
239.325	206.19
239.559	213.19
239.793	215.19
240.027	217.19
240.26	217.19
240.494	213.19
240.728	208.19
240.961	198.19
241.195	211.19
241.429	221.19
241.662	224.19
241.896	204.19
242.13	234.19
242.363	245.19
242.597	240.19
242.83	256.19
243.064	233.19
243.298	246.19
243.531	246.19
243.765	243.19
243.998	251.19
244.232	263.19
244.465	242.19
244.699	269.19
244.932	261.19
245.166	262.19
245.399	270.19
245.633	272.19
245.866	260.19
246.099	275.19
246.333	264.19
246.566	282.19
246.8	285.19
247.033	297.19
247.266	268.19
247.5	284.19
247.733	272.19
247.966	302.19
248.2	275.19
248.433	283.19
248.666	284.19
248.899	296.19
249.133	285.19
249.366	308.19
249.599	309.19
249.832	300.19
250.066	301.19
250.299	313.19
250.532	314.19
250.765	327.19
250.998	325.19
251.231	324.19
251.465	336.19
251.698	322.19
251.931	335.19
252.164	326.19
252.397	333.19
252.63	349.19
252.863	343.19
253.096	341.19
253.329	347.19
253.562	338.19
253.795	336.19
254.028	349.19
254.261	338.19
254.494	374.19
254.727	358.19
254.96	366.19
255.193	357.19
255.426	342.19
255.659	338.19
255.892	356.19
256.124	357.19
256.357	350.19
256.59	363.19
256.823	372.19
257.056	375.19
257.289	340.19
257.521	386.19
257.754	376.19
257.987	378.19
258.22	371.19
258.452	380.19
258.685	381.19
258.918	379.19
259.151	377.19
259.383	374.19
259.616	379.19
259.849	409.19
260.081	393.19
260.314	396.19
260.547	392.19
260.779	398.19
261.012	407.19
261.244	402.19
261.477	427.19
261.71	406.19
261.942	405.19
262.175	378.19
262.407	396.19
262.64	390.19
262.872	405.19
263.105	424.19
263.337	445.19
263.57	424.19
263.802	413.19
264.035	428.19
264.267	430.19
264.499	447.19
264.732	441.19
264.964	431.19
265.197	425.19
265.429	446.19
265.661	438.19
265.894	443.19
266.126	453.19
266.358	459.19
266.591	438.19
266.823	475.19
267.055	455.19
267.287	444.19
267.52	444.19
267.752	453.19
267.984	458.19
268.216	453.19
268.448	449.19
268.681	466.19
268.913	468.19
269.145	465.19
269.377	456.19
269.609	462.19
269.841	472.19
270.073	467.19
270.306	475.19
270.538	469.19
270.77	477.19
271.002	465.19
271.234	502.19
271.466	476.19
271.698	485.19
271.93	490.19
272.162	502.19
272.394	483.19
272.626	501.19
272.858	486.19
273.09	493.19
273.322	513.19
273.553	491.19
273.785	493.19
274.017	497.19
274.249	527.19
274.481	522.19
274.713	496.19
274.945	514.19
275.176	511.19
275.408	523.19
275.64	524.19
275.872	513.19
276.104	533.19
276.335	529.19
276.567	540.19
276.799	517.19
277.031	541.19
277.262	535.19
277.494	532.19
277.726	554.19
277.957	538.19
278.189	548.19
278.421	547.19
278.652	532.19
278.884	564.19
279.115	541.19
279.347	570.19
279.579	555.19
279.81	583.19
280.042	561.19
280.273	575.19
280.505	554.19
280.736	584.19
280.968	579.19
281.199	588.19
281.431	594.19
281.662	578.19
281.894	594.19
282.125	597.19
282.356	617.19
282.588	617.19
282.819	605.19
283.051	607.19
283.282	588.19
283.513	576.19
283.745	614.19
283.976	616.19
284.207	621.19
284.439	625.19
284.67	582.19
284.901	609.19
285.132	631.19
285.364	633.19
285.595	610.19
285.826	626.19
286.057	633.19
286.288	627.19
286.52	647.19
286.751	660.19
286.982	636.19
287.213	638.19
287.444	634.19
287.675	664.19
287.906	641.19
288.138	650.19
288.369	644.19
288.6	677.19
288.831	629.19
289.062	662.19
289.293	645.19
289.524	671.19
289.755	651.19
289.986	661.19
290.217	654.19
290.448	636.19
290.679	658.19
290.91	659.19
291.141	670.19
291.371	675.19
291.602	708.19
291.833	667.19
292.064	664.19
292.295	672.19
292.526	683.19
292.757	669.19
292.987	676.19
293.218	680.19
293.449	678.19
293.68	653.19
293.91	668.19
294.141	676.19
294.372	652.19
294.603	680.19
294.833	707.19
295.064	666.19
295.295	706.19
295.525	672.19
295.756	692.19
295.987	670.19
296.217	708.19
296.448	690.19
296.679	699.19
296.909	684.19
297.14	707.19
297.37	730.19
297.601	720.19
297.831	704.19
298.062	712.19
298.292	720.19
298.523	735.19
298.753	719.19
298.984	754.19
299.214	716.19
299.445	704.19
299.675	720.19
299.905	723.19
300.136	750.19
300.366	734.19
300.597	762.19
300.827	748.19
301.057	772.19
301.288	786.19
301.518	749.19
301.748	781.19
301.979	772.19
302.209	782.19
302.439	765.19
302.669	788.19
302.9	750.19
303.13	734.19
303.36	765.19
303.59	747.19
303.82	757.19
304.051	772.19
304.281	760.19
304.511	749.19
304.741	764.19
304.971	770.19
305.201	735.19
305.431	760.19
305.661	740.19
305.891	771.19
306.121	741.19
306.352	756.19
306.582	728.19
306.812	721.19
307.042	750.19
307.272	747.19
307.502	754.19
307.731	753.19
307.961	750.19
308.191	747.19
308.421	744.19
308.651	733.19
308.881	710.19
309.111	752.19
309.341	758.19
309.571	754.19
309.8	745.19
310.03	768.19
310.26	745.19
310.49	725.19
310.72	747.19
310.949	737.19
311.179	759.19
311.409	759.19
311.639	762.19
311.868	743.19
312.098	753.19
312.328	783.19
312.557	765.19
312.787	778.19
313.017	778.19
313.246	784.19
313.476	765.19
313.706	800.19
313.935	810.19
314.165	805.19
314.394	804.19
314.624	791.19
314.853	803.19
315.083	815.19
315.312	789.19
315.542	805.19
315.771	808.19
316.001	795.19
316.23	800.19
316.46	778.19
316.689	787.19
316.919	781.19
317.148	800.19
317.377	774.19
317.607	771.19
317.836	772.19
318.065	781.19
318.295	788.19
318.524	786.19
318.753	780.19
318.983	772.19
319.212	792.19
319.441	788.19
319.67	769.19
319.9	776.19
320.129	783.19
320.358	781.19
320.587	779.19
320.816	783.19
321.046	797.19
321.275	785.19
321.504	781.19
321.733	781.19
321.962	798.19
322.191	777.19
322.42	806.19
322.649	793.19
322.878	776.19
323.108	796.19
323.337	827.19
323.566	816.19
323.795	813.19
324.024	817.19
324.253	838.19
324.482	800.19
324.71	808.19
324.939	816.19
325.168	809.19
325.397	832.19
325.626	826.19
325.855	844.19
326.084	841.19
326.313	826.19
326.542	853.19
326.77	861.19
326.999	840.19
327.228	861.19
327.457	850.19
327.686	840.19
327.914	849.19
328.143	861.19
328.372	855.19
328.6	847.19
328.829	855.19
329.058	855.19
329.287	839.19
329.515	861.19
329.744	901.19
329.972	875.19
330.201	866.19
330.43	868.19
330.658	906.19
330.887	896.19
331.115	905.19
331.344	908.19
331.572	942.19
331.801	923.19
332.03	945.19
332.258	929.19
332.486	967.19
332.715	1012.19
332.943	1053.19
333.172	1060.19
333.4	1106.19
333.629	1151.19
333.857	1144.19
334.085	1149.19
334.314	1174.19
334.542	1154.19
334.771	1151.19
334.999	1089.19
335.227	1124.19
335.455	1124.19
335.684	1096.19
335.912	1058.19
336.14	1044.19
336.369	1043.19
336.597	1042.19
336.825	1019.19
337.053	1030.19
337.281	1022.19
337.51	981.19
337.738	959.19
337.966	968.19
338.194	974.19
338.422	940.19
338.65	926.19
338.878	937.19
339.106	949.19
339.334	932.19
339.562	918.19
339.79	931.19
340.018	889.19
340.246	897.19
340.474	893.19
340.702	918.19
340.93	914.19
341.158	918.19
341.386	939.19
341.614	909.19
341.842	893.19
342.07	892.19
342.298	885.19
342.526	899.19
342.754	901.19
342.981	897.19
343.209	922.19
343.437	944.19
343.665	999.19
343.893	1047.19
344.12	1113.19
344.348	1081.19
344.576	1046.19
344.804	992.19
345.031	979.19
345.259	954.19
345.487	917.19
345.714	912.19
345.942	898.19
346.17	911.19
346.397	893.19
346.625	889.19
346.853	858.19
347.08	852.19
347.308	888.19
347.535	886.19
347.763	886.19
347.99	884.19
348.218	872.19
348.445	860.19
348.673	846.19
348.9	888.19
349.128	869.19
349.355	857.19
349.583	850.19
349.81	840.19
350.037	850.19
350.265	858.19
350.492	838.19
350.72	858.19
350.947	820.19
351.174	823.19
351.402	829.19
351.629	811.19
351.856	823.19
352.083	810.19
352.311	805.19
352.538	827.19
352.765	838.19
352.992	849.19
353.22	821.19
353.447	805.19
353.674	791.19
353.901	830.19
354.128	856.19
354.355	825.19
354.583	830.19
354.81	825.19
355.037	824.19
355.264	828.19
355.491	828.19
355.718	833.19
355.945	860.19
356.172	838.19
356.399	841.19
356.626	842.19
356.853	828.19
357.08	826.19
357.307	846.19
357.534	819.19
357.761	844.19
357.988	838.19
358.215	831.19
358.441	848.19
358.668	818.19
358.895	822.19
359.122	847.19
359.349	820.19
359.576	832.19
359.802	835.19
360.029	846.19
360.256	850.19
360.483	826.19
360.709	833.19
360.936	842.19
361.163	839.19
361.39	841.19
361.616	830.19
361.843	825.19
362.07	848.19
362.296	832.19
362.523	828.19
362.749	851.19
362.976	827.19
363.203	818.19
363.429	807.19
363.656	810.19
363.882	827.19
364.109	850.19
364.335	806.19
364.562	825.19
364.788	856.19
365.015	834.19
365.241	835.19
365.468	821.19
365.694	812.19
365.92	809.19
366.147	816.19
366.373	821.19
366.599	808.19
366.826	822.19
367.052	824.19
367.278	828.19
367.505	830.19
367.731	829.19
367.957	836.19
368.184	836.19
368.41	833.19
368.636	844.19
368.862	861.19
369.089	850.19
369.315	840.19
369.541	866.19
369.767	860.19
369.993	878.19
370.219	854.19
370.445	877.19
370.672	871.19
370.898	872.19
371.124	892.19
371.35	907.19
371.576	934.19
371.802	901.19
372.028	912.19
372.254	923.19
372.48	910.19
372.706	936.19
372.932	948.19
373.158	943.19
373.384	938.19
373.61	924.19
373.835	925.19
374.061	896.19
374.287	921.19
374.513	952.19
374.739	956.19
374.965	966.19
375.191	1012.19
375.416	1005.19
375.642	984.19
375.868	957.19
376.094	944.19
376.319	934.19
376.545	909.19
376.771	924.19
376.997	897.19
377.222	938.19
377.448	908.19
377.674	910.19
377.899	891.19
378.125	912.19
378.35	898.19
378.576	868.19
378.802	894.19
379.027	900.19
379.253	932.19
379.478	898.19
379.704	922.19
379.929	899.19
380.155	924.19
380.38	889.19
380.606	916.19
380.831	913.19
381.057	898.19
381.282	914.19
381.507	892.19
381.733	916.19
381.958	930.19
382.184	928.19
382.409	931.19
382.634	916.19
382.86	937.19
383.085	938.19
383.31	989.19
383.535	963.19
383.761	1000.19
383.986	999.19
384.211	1017.19
384.436	1053.19
384.662	1064.19
384.887	1080.19
385.112	1059.19
385.337	1118.19
385.562	1109.19
385.787	1091.19
386.013	1118.19
386.238	1108.19
386.463	1069.19
386.688	1118.19
386.913	1084.19
387.138	1108.19
387.363	1112.19
387.588	1092.19
387.813	1096.19
388.038	1125.19
388.263	1094.19
388.488	1107.19
388.713	1083.19
388.938	1097.19
389.163	1090.19
389.387	1114.19
389.612	1086.19
389.837	1093.19
390.062	1078.19
390.287	1086.19
390.512	1091.19
390.736	1096.19
390.961	1109.19
391.186	1124.19
391.411	1170.19
391.636	1184.19
391.86	1226.19
392.085	1275.19
392.31	1221.19
392.534	1222.19
392.759	1201.19
392.984	1184.19
393.208	1184.19
393.433	1141.19
393.658	1180.19
393.882	1156.19
394.107	1198.19
394.331	1169.19
394.556	1195.19
394.78	1172.19
395.005	1172.19
395.229	1209.19
395.454	1223.19
395.678	1238.19
395.903	1258.19
396.127	1250.19
396.352	1224.19
396.576	1194.19
396.801	1212.19
397.025	1251.19
397.249	1213.19
397.474	1257.19
397.698	1267.19
397.922	1273.19
398.147	1255.19
398.371	1359.19
398.595	1370.19
398.82	1371.19
399.044	1499.19
399.268	1598.19
399.492	1858.19
399.717	2056.19
399.941	2101.19
400.165	1947.19
400.389	1788.19
400.613	1644.19
400.837	1522.19
401.062	1486.19
401.286	1466.19
401.51	1413.19
401.734	1426.19
401.958	1416.19
402.182	1476.19
402.406	1434.19
402.63	1460.19
402.854	1528.19
403.078	1500.19
403.302	1520.19
403.526	1557.19
403.75	1561.19
403.974	1572.19
404.198	1565.19
404.422	1611.19
404.645	1551.19
404.869	1569.19
405.093	1594.19
405.317	1541.19
405.541	1552.19
405.765	1560.19
405.988	1537.19
406.212	1568.19
406.436	1509.19
406.66	1572.19
406.883	1588.19
407.107	1670.19
407.331	1782.19
407.555	1840.19
407.778	1838.19
408.002	1784.19
408.226	1744.19
408.449	1709.19
408.673	1637.19
408.896	1589.19
409.12	1562.19
409.344	1604.19
409.567	1572.19
409.791	1576.19
410.014	1599.19
410.238	1548.19
410.461	1560.19
410.685	1500.19
410.908	1490.19
411.132	1498.19
411.355	1406.19
411.578	1438.19
411.802	1459.19
412.025	1485.19
412.249	1479.19
412.472	1477.19
412.695	1458.19
412.919	1404.19
413.142	1400.19
413.365	1427.19
413.589	1438.19
413.812	1365.19
414.035	1389.19
414.258	1376.19
414.482	1375.19
414.705	1429.19
414.928	1380.19
415.151	1410.19
415.374	1401.19
415.597	1363.19
415.821	1358.19
416.044	1371.19
416.267	1348.19
416.49	1358.19
416.713	1366.19
416.936	1352.19
417.159	1381.19
417.382	1361.19
417.605	1339.19
417.828	1379.19
418.051	1375.19
418.274	1378.19
418.497	1348.19
418.72	1405.19
418.943	1394.19
419.166	1490.19
419.389	1598.19
419.611	1593.19
419.834	1497.19
420.057	1430.19
420.28	1378.19
420.503	1368.19
420.726	1356.19
420.948	1362.19
421.171	1350.19
421.394	1387.19
421.617	1377.19
421.839	1378.19
422.062	1374.19
422.285	1377.19
422.507	1392.19
422.73	1398.19
422.953	1369.19
423.175	1404.19
423.398	1414.19
423.621	1429.19
423.843	1404.19
424.066	1408.19
424.288	1457.19
424.511	1421.19
424.733	1429.19
424.956	1389.19
425.178	1375.19
425.401	1405.19
425.623	1354.19
425.846	1309.19
426.068	1349.19
426.291	1360.19
426.513	1316.19
426.735	1284.19
426.958	1318.19
427.18	1257.19
427.402	1266.19
427.625	1264.19
427.847	1284.19
428.069	1189.19
428.292	1265.19
428.514	1227.19
428.736	1200.19
428.958	1199.19
429.181	1203.19
429.403	1201.19
429.625	1218.19
429.847	1200.19
430.069	1184.19
430.292	1179.19
430.514	1171.19
430.736	1182.19
430.958	1189.19
431.18	1241.19
431.402	1193.19
431.624	1203.19
431.846	1227.19
432.068	1251.19
432.29	1235.19
432.512	1216.19
432.734	1215.19
432.956	1189.19
433.178	1233.19
433.4	1218.19
433.622	1211.19
433.844	1227.19
434.066	1240.19
434.287	1271.19
434.509	1264.19
434.731	1290.19
434.953	1373.19
435.175	1380.19
435.397	1352.19
435.618	1298.19
435.84	1248.19
436.062	1234.19
436.284	1215.19
436.505	1228.19
436.727	1244.19
436.949	1240.19
437.17	1188.19
437.392	1169.19
437.614	1186.19
437.835	1189.19
438.057	1180.19
438.278	1160.19
438.5	1137.19
438.721	1158.19
438.943	1151.19
439.165	1155.19
439.386	1158.19
439.608	1205.19
439.829	1174.19
440.05	1225.19
440.272	1220.19
440.493	1203.19
440.715	1188.19
440.936	1231.19
441.158	1250.19
441.379	1349.19
441.6	1330.19
441.822	1384.19
442.043	1373.19
442.264	1320.19
442.486	1310.19
442.707	1302.19
442.928	1284.19
443.149	1314.19
443.371	1318.19
443.592	1348.19
443.813	1402.19
444.034	1376.19
444.255	1406.19
444.476	1507.19
444.698	1533.19
444.919	1610.19
445.14	1655.19
445.361	1529.19
445.582	1436.19
445.803	1345.19
446.024	1272.19
446.245	1292.19
446.466	1251.19
446.687	1222.19
446.908	1259.19
447.129	1190.19
447.35	1143.19
447.571	1150.19
447.792	1164.19
448.013	1156.19
448.234	1132.19
448.455	1117.19
448.675	1108.19
448.896	1138.19
449.117	1086.19
449.338	1121.19
449.559	1105.19
449.779	1082.19
450	1078.19
450.221	1094.19
450.442	1141.19
450.662	1108.19
450.883	1121.19
451.104	1134.19
451.324	1122.19
451.545	1127.19
451.766	1108.19
451.986	1102.19
452.207	1100.19
452.428	1092.19
452.648	1112.19
452.869	1072.19
453.089	1075.19
453.31	1072.19
453.53	1053.19
453.751	1062.19
453.971	1049.19
454.192	1060.19
454.412	1049.19
454.633	1056.19
454.853	1074.19
455.073	1035.19
455.294	1051.19
455.514	1018.19
455.734	1025.19
455.955	1024.19
456.175	1015.19
456.395	1019.19
456.616	1018.19
456.836	1038.19
457.056	1017.19
457.276	1053.19
457.497	1069.19
457.717	1027.19
457.937	1028.19
458.157	1062.19
458.377	1096.19
458.598	1100.19
458.818	1152.19
459.038	1181.19
459.258	1170.19
459.478	1264.19
459.698	1253.19
459.918	1288.19
460.138	1300.19
460.358	1382.19
460.578	1418.19
460.798	1454.19
461.018	1433.19
461.238	1438.19
461.458	1443.19
461.678	1470.19
461.898	1434.19
462.118	1481.19
462.338	1580.19
462.558	1601.19
462.777	1664.19
462.997	1796.19
463.217	1886.19
463.437	1915.19
463.657	1787.19
463.876	1712.19
464.096	1736.19
464.316	1683.19
464.536	1694.19
464.755	1641.19
464.975	1624.19
465.195	1519.19
465.414	1413.19
465.634	1346.19
465.854	1282.19
466.073	1271.19
466.293	1231.19
466.512	1206.19
466.732	1162.19
466.951	1166.19
467.171	1159.19
467.391	1184.19
467.61	1162.19
467.829	1158.19
468.049	1123.19
468.268	1139.19
468.488	1112.19
468.707	1094.19
468.927	1148.19
469.146	1126.19
469.365	1122.19
469.585	1152.19
469.804	1168.19
470.023	1206.19
470.243	1185.19
470.462	1204.19
470.681	1223.19
470.901	1241.19
471.12	1173.19
471.339	1148.19
471.558	1139.19
471.777	1140.19
471.997	1129.19
472.216	1109.19
472.435	1097.19
472.654	1125.19
472.873	1098.19
473.092	1097.19
473.311	1065.19
473.53	1120.19
473.749	1090.19
473.968	1082.19
474.187	1081.19
474.406	1103.19
474.625	1084.19
474.844	1093.19
475.063	1070.19
475.282	1090.19
475.501	1110.19
475.72	1135.19
475.939	1145.19
476.158	1129.19
476.377	1132.19
476.596	1146.19
476.814	1148.19
477.033	1193.19
477.252	1209.19
477.471	1210.19
477.69	1212.19
477.908	1253.19
478.127	1295.19
478.346	1272.19
478.564	1343.19
478.783	1330.19
479.002	1365.19
479.22	1389.19
479.439	1340.19
479.658	1380.19
479.876	1398.19
480.095	1390.19
480.313	1450.19
480.532	1480.19
480.751	1483.19
480.969	1413.19
481.188	1361.19
481.406	1336.19
481.624	1300.19
481.843	1301.19
482.061	1271.19
482.28	1254.19
482.498	1260.19
482.717	1256.19
482.935	1266.19
483.153	1243.19
483.372	1285.19
483.59	1293.19
483.808	1254.19
484.027	1275.19
484.245	1270.19
484.463	1266.19
484.681	1295.19
484.9	1291.19
485.118	1280.19
485.336	1329.19
485.554	1299.19
485.772	1325.19
485.99	1342.19
486.209	1346.19
486.427	1337.19
486.645	1309.19
486.863	1353.19
487.081	1338.19
487.299	1351.19
487.517	1315.19
487.735	1327.19
487.953	1332.19
488.171	1332.19
488.389	1306.19
488.607	1306.19
488.825	1292.19
489.043	1313.19
489.261	1291.19
489.479	1285.19
489.696	1345.19
489.914	1294.19
490.132	1330.19
490.35	1326.19
490.568	1316.19
490.786	1313.19
491.003	1334.19
491.221	1330.19
491.439	1344.19
491.657	1304.19
491.874	1318.19
492.092	1347.19
492.31	1386.19
492.527	1401.19
492.745	1366.19
492.963	1342.19
493.18	1356.19
493.398	1369.19
493.615	1372.19
493.833	1395.19
494.05	1376.19
494.268	1440.19
494.485	1399.19
494.703	1389.19
494.92	1432.19
495.138	1402.19
495.355	1437.19
495.573	1433.19
495.79	1438.19
496.008	1438.19
496.225	1481.19
496.442	1478.19
496.66	1485.19
496.877	1503.19
497.094	1516.19
497.312	1556.19
497.529	1588.19
497.746	1619.19
497.963	1716.19
498.181	1803.19
498.398	1852.19
498.615	1954.19
498.832	2110.19
499.049	2211.19
499.267	2473.19
499.484	2670.19
499.701	2989.19
499.918	3241.19
500.135	3631.19
500.352	4000.19
500.569	4218.19
500.786	4118.19
501.003	3959.19
501.22	3648.19
501.437	3260.19
501.654	2903.19
501.871	2699.19
502.088	2456.19
502.305	2248.19
502.522	2121.19
502.739	2050.19
502.956	1905.19
503.172	1872.19
503.389	1781.19
503.606	1758.19
503.823	1722.19
504.04	1703.19
504.256	1674.19
504.473	1660.19
504.69	1683.19
504.907	1674.19
505.123	1576.19
505.34	1499.19
505.557	1441.19
505.773	1427.19
505.99	1364.19
506.207	1348.19
506.423	1360.19
506.64	1318.19
506.856	1288.19
507.073	1278.19
507.289	1281.19
507.506	1254.19
507.722	1269.19
507.939	1225.19
508.155	1213.19
508.372	1219.19
508.588	1178.19
508.805	1189.19
509.021	1192.19
509.238	1184.19
509.454	1167.19
509.67	1171.19
509.887	1182.19
510.103	1158.19
510.319	1166.19
510.536	1157.19
510.752	1133.19
510.968	1157.19
511.184	1120.19
511.401	1128.19
511.617	1139.19
511.833	1127.19
512.049	1109.19
512.265	1113.19
512.481	1129.19
512.698	1096.19
512.914	1106.19
513.13	1127.19
513.346	1146.19
513.562	1134.19
513.778	1156.19
513.994	1136.19
514.21	1141.19
514.426	1180.19
514.642	1148.19
514.858	1184.19
515.074	1132.19
515.29	1193.19
515.506	1184.19
515.721	1240.19
515.937	1223.19
516.153	1281.19
516.369	1320.19
516.585	1337.19
516.801	1356.19
517.016	1419.19
517.232	1480.19
517.448	1513.19
517.664	1582.19
517.879	1584.19
518.095	1592.19
518.311	1524.19
518.527	1498.19
518.742	1496.19
518.958	1413.19
519.173	1348.19
519.389	1312.19
519.605	1264.19
519.82	1224.19
520.036	1218.19
520.251	1194.19
520.467	1172.19
520.682	1171.19
520.898	1121.19
521.113	1149.19
521.329	1099.19
521.544	1114.19
521.76	1112.19
521.975	1098.19
522.19	1115.19
522.406	1085.19
522.621	1097.19
522.836	1065.19
523.052	1079.19
523.267	1070.19
523.482	1084.19
523.698	1093.19
523.913	1022.19
524.128	1058.19
524.343	1037.19
524.559	1060.19
524.774	1057.19
524.989	1028.19
525.204	1027.19
525.419	1015.19
525.634	996.19
525.849	1024.19
526.064	1030.19
526.28	1048.19
526.495	1009.19
526.71	1036.19
526.925	991.19
527.14	1022.19
527.355	1014.19
527.57	1004.19
527.785	980.19
527.999	1048.19
528.214	1015.19
528.429	1024.19
528.644	1038.19
528.859	1010.19
529.074	1034.19
529.289	981.19
529.503	1009.19
529.718	1009.19
529.933	1013.19
530.148	993.19
530.363	1001.19
530.577	1025.19
530.792	1005.19
531.007	1032.19
531.221	997.19
531.436	1014.19
531.651	987.19
531.865	1028.19
532.08	1005.19
532.295	1036.19
532.509	1009.19
532.724	999.19
532.938	1015.19
533.153	995.19
533.367	1028.19
533.582	1023.19
533.796	1002.19
534.011	973.19
534.225	993.19
534.44	1006.19
534.654	993.19
534.868	955.19
535.083	981.19
535.297	1002.19
535.511	955.19
535.726	978.19
535.94	976.19
536.154	980.19
536.369	937.19
536.583	958.19
536.797	955.19
537.011	957.19
537.225	948.19
537.44	919.19
537.654	927.19
537.868	937.19
538.082	928.19
538.296	931.19
538.51	916.19
538.724	918.19
538.938	961.19
539.153	916.19
539.367	932.19
539.581	928.19
539.795	905.19
540.009	905.19
540.222	902.19
540.436	904.19
540.65	925.19
540.864	939.19
541.078	912.19
541.292	920.19
541.506	904.19
541.72	893.19
541.934	915.19
542.147	910.19
542.361	901.19
542.575	908.19
542.789	892.19
543.002	898.19
543.216	904.19
543.43	893.19
543.644	904.19
543.857	899.19
544.071	883.19
544.285	924.19
544.498	914.19
544.712	895.19
544.925	942.19
545.139	945.19
545.352	915.19
545.566	932.19
545.779	924.19
545.993	949.19
546.206	913.19
546.42	928.19
546.633	938.19
546.847	925.19
547.06	899.19
547.274	924.19
547.487	935.19
547.7	955.19
547.914	951.19
548.127	922.19
548.34	923.19
548.554	923.19
548.767	940.19
548.98	937.19
549.193	937.19
549.407	964.19
549.62	931.19
549.833	986.19
550.046	973.19
550.259	942.19
550.473	906.19
550.686	900.19
550.899	950.19
551.112	922.19
551.325	890.19
551.538	918.19
551.751	903.19
551.964	917.19
552.177	923.19
552.39	939.19
552.603	980.19
552.816	970.19
553.029	996.19
553.242	1026.19
553.455	1046.19
553.667	1086.19
553.88	1024.19
554.093	995.19
554.306	987.19
554.519	929.19
554.732	939.19
554.944	937.19
555.157	923.19
555.37	909.19
555.583	875.19
555.795	880.19
556.008	844.19
556.221	829.19
556.433	820.19
556.646	809.19
556.859	804.19
557.071	837.19
557.284	780.19
557.496	794.19
557.709	800.19
557.921	797.19
558.134	809.19
558.346	773.19
558.559	813.19
558.771	795.19
558.984	782.19
559.196	768.19
559.409	803.19
559.621	780.19
559.833	752.19
560.046	780.19
560.258	765.19
560.47	725.19
560.683	767.19
560.895	741.19
561.107	767.19
561.32	777.19
561.532	789.19
561.744	774.19
561.956	776.19
562.168	768.19
562.381	766.19
562.593	784.19
562.805	745.19
563.017	757.19
563.229	779.19
563.441	769.19
563.653	790.19
563.865	758.19
564.077	819.19
564.289	796.19
564.501	812.19
564.713	836.19
564.925	842.19
565.137	887.19
565.349	866.19
565.561	892.19
565.773	948.19
565.985	995.19
566.197	1056.19
566.408	1084.19
566.62	1200.19
566.832	1244.19
567.044	1271.19
567.255	1296.19
567.467	1332.19
567.679	1389.19
567.891	1445.19
568.102	1466.19
568.314	1370.19
568.526	1287.19
568.737	1186.19
568.949	1095.19
569.161	1018.19
569.372	934.19
569.584	894.19
569.795	875.19
570.007	845.19
570.218	840.19
570.43	829.19
570.641	806.19
570.853	794.19
571.064	790.19
571.276	786.19
571.487	778.19
571.698	736.19
571.91	718.19
572.121	728.19
572.333	703.19
572.544	672.19
572.755	683.19
572.966	673.19
573.178	641.19
573.389	644.19
573.6	645.19
573.811	625.19
574.023	650.19
574.234	646.19
574.445	641.19
574.656	617.19
574.867	660.19
575.078	647.19
575.289	626.19
575.501	636.19
575.712	594.19
575.923	618.19
576.134	590.19
576.345	573.19
576.556	604.19
576.767	607.19
576.978	610.19
577.188	583.19
577.399	581.19
577.61	582.19
577.821	589.19
578.032	603.19
578.243	591.19
578.454	568.19
578.665	558.19
578.875	548.19
579.086	558.19
579.297	544.19
579.508	548.19
579.718	545.19
579.929	553.19
580.14	538.19
580.35	552.19
580.561	535.19
580.772	553.19
580.982	542.19
581.193	532.19
581.403	545.19
581.614	548.19
581.825	528.19
582.035	517.19
582.246	532.19
582.456	522.19
582.667	532.19
582.877	527.19
583.087	549.19
583.298	508.19
583.508	531.19
583.719	522.19
583.929	498.19
584.139	514.19
584.35	509.19
584.56	506.19
584.77	541.19
584.981	526.19
585.191	518.19
585.401	519.19
585.611	512.19
585.821	506.19
586.032	501.19
586.242	487.19
586.452	499.19
586.662	493.19
586.872	497.19
587.082	505.19
587.292	516.19
587.502	507.19
587.713	494.19
587.923	515.19
588.133	478.19
588.343	493.19
588.553	517.19
588.762	520.19
588.972	509.19
589.182	514.19
589.392	516.19
589.602	479.19
589.812	500.19
590.022	508.19
590.232	498.19
590.441	524.19
590.651	515.19
590.861	497.19
591.071	521.19
591.281	520.19
591.49	548.19
591.7	504.19
591.91	550.19
592.119	549.19
592.329	566.19
592.539	557.19
592.748	578.19
592.958	587.19
593.167	627.19
593.377	621.19
593.587	616.19
593.796	644.19
594.006	662.19
594.215	667.19
594.424	651.19
594.634	635.19
594.843	627.19
595.053	607.19
595.262	578.19
595.472	558.19
595.681	530.19
595.89	519.19
596.1	515.19
596.309	499.19
596.518	493.19
596.727	473.19
596.937	489.19
597.146	484.19
597.355	447.19
597.564	462.19
597.774	462.19
597.983	436.19
598.192	425.19
598.401	453.19
598.61	445.19
598.819	422.19
599.028	423.19
599.237	417.19
599.446	445.19
599.655	414.19
599.864	426.19
600.073	435.19
600.282	422.19
600.491	413.19
600.7	424.19
600.909	416.19
601.118	434.19
601.327	406.19
601.536	418.19
601.745	418.19
601.953	418.19
602.162	425.19
602.371	409.19
602.58	401.19
602.789	399.19
602.997	398.19
603.206	401.19
603.415	394.19
603.623	389.19
603.832	402.19
604.041	397.19
604.249	402.19
604.458	413.19
604.666	391.19
604.875	384.19
605.084	395.19
605.292	390.19
605.501	393.19
605.709	365.19
605.918	384.19
606.126	375.19
606.334	368.19
606.543	377.19
606.751	372.19
606.96	359.19
607.168	378.19
607.376	375.19
607.585	355.19
607.793	365.19
608.001	375.19
608.21	380.19
608.418	363.19
608.626	361.19
608.834	382.19
609.043	365.19
609.251	376.19
609.459	369.19
609.667	374.19
609.875	339.19
610.083	357.19
610.291	373.19
610.499	365.19
610.707	359.19
610.916	357.19
611.124	349.19
611.332	350.19
611.54	364.19
611.748	366.19
611.955	362.19
612.163	365.19
612.371	363.19
612.579	365.19
612.787	355.19
612.995	378.19
613.203	350.19
613.411	346.19
613.618	355.19
613.826	359.19
614.034	336.19
614.242	352.19
614.449	347.19
614.657	362.19
614.865	349.19
615.072	340.19
615.28	337.19
615.488	342.19
615.695	339.19
615.903	357.19
616.111	339.19
616.318	346.19
616.526	361.19
616.733	372.19
616.941	338.19
617.148	345.19
617.356	354.19
617.563	329.19
617.771	339.19
617.978	345.19
618.185	358.19
618.393	363.19
618.6	353.19
618.807	356.19
619.015	353.19
619.222	342.19
619.429	368.19
619.637	332.19
619.844	339.19
620.051	349.19
620.258	331.19
620.466	333.19
620.673	315.19
620.88	334.19
621.087	332.19
621.294	336.19
621.501	328.19
621.708	339.19
621.915	324.19
622.122	296.19
622.329	336.19
622.536	336.19
622.743	321.19
622.95	304.19
623.157	296.19
623.364	320.19
623.571	323.19
623.778	296.19
623.985	288.19
624.192	311.19
624.399	303.19
624.606	309.19
624.812	310.19
625.019	298.19
625.226	300.19
625.433	314.19
625.639	316.19
625.846	302.19
626.053	309.19
626.259	301.19
626.466	295.19
626.673	301.19
626.879	296.19
627.086	300.19
627.293	290.19
627.499	310.19
627.706	302.19
627.912	278.19
628.119	296.19
628.325	286.19
628.532	304.19
628.738	272.19
628.945	276.19
629.151	296.19
629.357	293.19
629.564	274.19
629.77	290.19
629.976	270.19
630.183	257.19
630.389	294.19
630.595	264.19
630.802	286.19
631.008	279.19
631.214	281.19
631.42	288.19
631.627	264.19
631.833	266.19
632.039	258.19
632.245	268.19
632.451	264.19
632.657	270.19
632.863	282.19
633.069	248.19
633.275	249.19
633.481	268.19
633.688	257.19
633.893	246.19
634.099	249.19
634.305	272.19
634.511	252.19
634.717	274.19
634.923	241.19
635.129	243.19
635.335	248.19
635.541	266.19
635.747	256.19
635.952	246.19
636.158	240.19
636.364	250.19
636.57	230.19
636.775	244.19
636.981	264.19
637.187	240.19
637.392	243.19
637.598	252.19
637.804	259.19
638.009	257.19
638.215	260.19
638.421	237.19
638.626	247.19
638.832	244.19
639.037	251.19
639.243	227.19
639.448	256.19
639.654	248.19
639.859	252.19
640.065	244.19
640.27	231.19
640.475	225.19
640.681	230.19
640.886	234.19
641.091	228.19
641.297	226.19
641.502	216.19
641.707	216.19
641.913	230.19
642.118	227.19
642.323	225.19
642.528	251.19
642.733	232.19
642.939	238.19
643.144	222.19
643.349	227.19
643.554	203.19
643.759	228.19
643.964	233.19
644.169	243.19
644.374	224.19
644.579	210.19
644.784	233.19
644.989	215.19
645.194	212.19
645.399	209.19
645.604	225.19
645.809	210.19
646.014	211.19
646.219	229.19
646.423	240.19
646.628	216.19
646.833	220.19
647.038	236.19
647.243	227.19
647.447	212.19
647.652	235.19
647.857	232.19
648.062	242.19
648.266	227.19
648.471	233.19
648.676	225.19
648.88	236.19
649.085	231.19
649.289	224.19
649.494	224.19
649.698	218.19
649.903	215.19
650.107	199.19
650.312	190.19
650.516	193.19
650.721	195.19
650.925	196.19
651.13	196.19
651.334	201.19
651.539	191.19
651.743	186.19
651.947	193.19
652.152	182.19
652.356	178.19
652.56	179.19
652.764	181.19
652.969	182.19
653.173	165.19
653.377	169.19
653.581	177.19
653.785	157.19
653.99	160.19
654.194	154.19
654.398	173.19
654.602	163.19
654.806	158.19
655.01	164.19
655.214	157.19
655.418	169.19
655.622	171.19
655.826	147.19
656.03	154.19
656.234	150.19
656.438	143.19
656.642	152.19
656.846	153.19
657.049	149.19
657.253	146.19
657.457	149.19
657.661	149.19
657.865	122.19
658.068	125.19
658.272	117.19
658.476	136.19
658.68	120.19
658.883	123.19
659.087	115.19
659.291	94.19
659.494	98.19
659.698	107.19
659.901	116.19
660.105	82.19
660.309	92.19
660.512	112.19
660.716	102.19
660.919	109.19
661.123	90.19
661.326	86.19
661.53	84.19
661.733	92.19
661.936	93.19
662.14	83.19
662.343	93.19
662.546	94.19
662.75	82.19
662.953	103.19
663.156	80.19
663.36	74.19
663.563	80.19
663.766	84.19
663.969	80.19
664.173	82.19
664.376	84.19
664.579	82.19
664.782	78.19
664.985	92.19
665.188	95.19
665.391	88.19
665.594	75.19
665.797	80.19
666	79.19
666.203	84.19
666.406	85.19
666.609	83.19
666.812	62.19
667.015	82.19
667.218	93.19
667.421	80.19
667.624	81.19
667.827	70.19
668.03	89.19
668.232	76.19
668.435	88.19
668.638	84.19
668.841	80.19
669.043	86.19
669.246	81.19
669.449	88.19
669.651	85.19
669.854	83.19
670.057	73.19
670.259	76.19
670.462	93.19
670.665	82.19
670.867	81.19
671.07	95.19
671.272	82.19
671.475	80.19
671.677	80.19
671.88	78.19
672.082	86.19
672.284	68.19
672.487	72.19
672.689	81.19
672.892	73.19
