Data from NiCl2@0.5M.TitratingCurve.Agarose3%dH2O.NegLispCup.LampEnergy10.LIBS07252019_HRD10591_18-19-37-572.txt Node
Date: Thu Jul 25 18:19:37 EDT 2019
User: cochatt
Spectrometer: HR+D1059
Trigger mode: 1
Integration Time (sec): 1.000000E-1
Scans to average: 1
Electric dark correction enabled: true
Nonlinearity correction enabled: false
Boxcar width: 0
XAxis mode: Wavelengths
Number of Pixels in Spectrum: 2048
>>>>>Begin Spectral Data<<<<<
223.165	-17.69
223.4	-17.69
223.635	-17.69
223.869	-26.69
224.104	-24.69
224.338	-12.69
224.573	-16.69
224.808	-7.69
225.042	-18.69
225.277	3.31
225.511	-0.69
225.746	20.31
225.98	1.31
226.215	20.31
226.449	26.31
226.683	9.31
226.918	19.31
227.152	25.31
227.387	33.31
227.621	25.31
227.856	50.31
228.09	48.31
228.324	38.31
228.559	61.31
228.793	68.31
229.027	90.31
229.262	100.31
229.496	110.31
229.73	113.31
229.964	102.31
230.199	121.31
230.433	129.31
230.667	115.31
230.901	119.31
231.136	117.31
231.37	121.31
231.604	119.31
231.838	133.31
232.072	134.31
232.306	118.31
232.541	142.31
232.775	121.31
233.009	154.31
233.243	125.31
233.477	131.31
233.711	124.31
233.945	127.31
234.179	120.31
234.413	113.31
234.647	121.31
234.881	131.31
235.115	132.31
235.349	139.31
235.583	143.31
235.817	137.31
236.051	127.31
236.285	142.31
236.519	135.31
236.753	139.31
236.987	139.31
237.221	144.31
237.455	133.31
237.689	139.31
237.922	119.31
238.156	140.31
238.39	143.31
238.624	135.31
238.858	148.31
239.091	150.31
239.325	145.31
239.559	161.31
239.793	160.31
240.027	140.31
240.26	158.31
240.494	152.31
240.728	143.31
240.961	150.31
241.195	142.31
241.429	165.31
241.662	154.31
241.896	154.31
242.13	166.31
242.363	173.31
242.597	174.31
242.83	168.31
243.064	170.31
243.298	163.31
243.531	160.31
243.765	189.31
243.998	185.31
244.232	176.31
244.465	180.31
244.699	157.31
244.932	164.31
245.166	166.31
245.399	183.31
245.633	182.31
245.866	179.31
246.099	179.31
246.333	173.31
246.566	190.31
246.8	203.31
247.033	179.31
247.266	193.31
247.5	188.31
247.733	194.31
247.966	199.31
248.2	213.31
248.433	185.31
248.666	202.31
248.899	210.31
249.133	207.31
249.366	196.31
249.599	213.31
249.832	202.31
250.066	228.31
250.299	206.31
250.532	208.31
250.765	211.31
250.998	207.31
251.231	226.31
251.465	228.31
251.698	222.31
251.931	222.31
252.164	216.31
252.397	230.31
252.63	225.31
252.863	230.31
253.096	227.31
253.329	228.31
253.562	207.31
253.795	212.31
254.028	235.31
254.261	239.31
254.494	237.31
254.727	220.31
254.96	235.31
255.193	219.31
255.426	239.31
255.659	246.31
255.892	237.31
256.124	255.31
256.357	235.31
256.59	239.31
256.823	234.31
257.056	250.31
257.289	240.31
257.521	254.31
257.754	244.31
257.987	269.31
258.22	247.31
258.452	250.31
258.685	251.31
258.918	259.31
259.151	254.31
259.383	245.31
259.616	254.31
259.849	257.31
260.081	271.31
260.314	276.31
260.547	262.31
260.779	266.31
261.012	270.31
261.244	278.31
261.477	274.31
261.71	285.31
261.942	275.31
262.175	270.31
262.407	277.31
262.64	285.31
262.872	278.31
263.105	266.31
263.337	279.31
263.57	286.31
263.802	257.31
264.035	267.31
264.267	266.31
264.499	279.31
264.732	291.31
264.964	273.31
265.197	272.31
265.429	287.31
265.661	283.31
265.894	303.31
266.126	299.31
266.358	298.31
266.591	294.31
266.823	297.31
267.055	291.31
267.287	299.31
267.52	311.31
267.752	304.31
267.984	286.31
268.216	285.31
268.448	292.31
268.681	318.31
268.913	309.31
269.145	312.31
269.377	315.31
269.609	311.31
269.841	328.31
270.073	314.31
270.306	295.31
270.538	306.31
270.77	329.31
271.002	327.31
271.234	291.31
271.466	303.31
271.698	313.31
271.93	321.31
272.162	324.31
272.394	331.31
272.626	337.31
272.858	318.31
273.09	333.31
273.322	335.31
273.553	323.31
273.785	330.31
274.017	322.31
274.249	342.31
274.481	336.31
274.713	331.31
274.945	356.31
275.176	354.31
275.408	339.31
275.64	334.31
275.872	359.31
276.104	352.31
276.335	338.31
276.567	336.31
276.799	352.31
277.031	358.31
277.262	339.31
277.494	349.31
277.726	355.31
277.957	359.31
278.189	377.31
278.421	358.31
278.652	353.31
278.884	366.31
279.115	378.31
279.347	363.31
279.579	381.31
279.81	361.31
280.042	362.31
280.273	373.31
280.505	383.31
280.736	370.31
280.968	386.31
281.199	384.31
281.431	387.31
281.662	399.31
281.894	369.31
282.125	381.31
282.356	389.31
282.588	376.31
282.819	389.31
283.051	399.31
283.282	384.31
283.513	385.31
283.745	404.31
283.976	395.31
284.207	391.31
284.439	409.31
284.67	407.31
284.901	409.31
285.132	390.31
285.364	406.31
285.595	410.31
285.826	403.31
286.057	405.31
286.288	393.31
286.52	410.31
286.751	393.31
286.982	414.31
287.213	423.31
287.444	426.31
287.675	424.31
287.906	409.31
288.138	435.31
288.369	419.31
288.6	447.31
288.831	442.31
289.062	429.31
289.293	422.31
289.524	427.31
289.755	433.31
289.986	426.31
290.217	423.31
290.448	437.31
290.679	445.31
290.91	422.31
291.141	430.31
291.371	443.31
291.602	449.31
291.833	418.31
292.064	437.31
292.295	432.31
292.526	445.31
292.757	438.31
292.987	433.31
293.218	434.31
293.449	451.31
293.68	432.31
293.91	445.31
294.141	444.31
294.372	432.31
294.603	456.31
294.833	450.31
295.064	436.31
295.295	437.31
295.525	464.31
295.756	454.31
295.987	449.31
296.217	463.31
296.448	458.31
296.679	445.31
296.909	447.31
297.14	460.31
297.37	457.31
297.601	465.31
297.831	477.31
298.062	477.31
298.292	477.31
298.523	508.31
298.753	491.31
298.984	460.31
299.214	488.31
299.445	482.31
299.675	488.31
299.905	470.31
300.136	484.31
300.366	498.31
300.597	507.31
300.827	523.31
301.057	501.31
301.288	505.31
301.518	506.31
301.748	498.31
301.979	521.31
302.209	537.31
302.439	495.31
302.669	505.31
302.9	501.31
303.13	487.31
303.36	505.31
303.59	498.31
303.82	509.31
304.051	497.31
304.281	520.31
304.511	515.31
304.741	526.31
304.971	494.31
305.201	511.31
305.431	531.31
305.661	526.31
305.891	527.31
306.121	505.31
306.352	514.31
306.582	524.31
306.812	503.31
307.042	516.31
307.272	494.31
307.502	485.31
307.731	505.31
307.961	501.31
308.191	512.31
308.421	506.31
308.651	525.31
308.881	506.31
309.111	491.31
309.341	501.31
309.571	494.31
309.8	511.31
310.03	535.31
310.26	535.31
310.49	540.31
310.72	530.31
310.949	522.31
311.179	511.31
311.409	513.31
311.639	534.31
311.868	514.31
312.098	519.31
312.328	542.31
312.557	537.31
312.787	533.31
313.017	532.31
313.246	538.31
313.476	538.31
313.706	549.31
313.935	542.31
314.165	547.31
314.394	536.31
314.624	557.31
314.853	541.31
315.083	538.31
315.312	549.31
315.542	529.31
315.771	548.31
316.001	570.31
316.23	549.31
316.46	556.31
316.689	522.31
316.919	514.31
317.148	529.31
317.377	538.31
317.607	523.31
317.836	535.31
318.065	561.31
318.295	531.31
318.524	541.31
318.753	513.31
318.983	551.31
319.212	555.31
319.441	549.31
319.67	551.31
319.9	547.31
320.129	576.31
320.358	549.31
320.587	552.31
320.816	550.31
321.046	535.31
321.275	559.31
321.504	544.31
321.733	557.31
321.962	559.31
322.191	558.31
322.42	573.31
322.649	582.31
322.878	567.31
323.108	573.31
323.337	576.31
323.566	579.31
323.795	549.31
324.024	566.31
324.253	569.31
324.482	566.31
324.71	583.31
324.939	612.31
325.168	599.31
325.397	558.31
325.626	587.31
325.855	605.31
326.084	586.31
326.313	594.31
326.542	616.31
326.77	612.31
326.999	594.31
327.228	613.31
327.457	591.31
327.686	581.31
327.914	596.31
328.143	640.31
328.372	597.31
328.6	623.31
328.829	600.31
329.058	592.31
329.287	599.31
329.515	618.31
329.744	616.31
329.972	612.31
330.201	632.31
330.43	597.31
330.658	606.31
330.887	605.31
331.115	608.31
331.344	614.31
331.572	618.31
331.801	631.31
332.03	629.31
332.258	654.31
332.486	663.31
332.715	686.31
332.943	691.31
333.172	711.31
333.4	723.31
333.629	757.31
333.857	756.31
334.085	753.31
334.314	732.31
334.542	746.31
334.771	751.31
334.999	734.31
335.227	718.31
335.455	719.31
335.684	707.31
335.912	699.31
336.14	707.31
336.369	703.31
336.597	707.31
336.825	716.31
337.053	727.31
337.281	692.31
337.51	694.31
337.738	670.31
337.966	682.31
338.194	665.31
338.422	680.31
338.65	657.31
338.878	632.31
339.106	664.31
339.334	652.31
339.562	631.31
339.79	606.31
340.018	625.31
340.246	616.31
340.474	629.31
340.702	634.31
340.93	628.31
341.158	633.31
341.386	639.31
341.614	650.31
341.842	651.31
342.07	602.31
342.298	606.31
342.526	615.31
342.754	618.31
342.981	610.31
343.209	627.31
343.437	651.31
343.665	692.31
343.893	723.31
344.12	714.31
344.348	698.31
344.576	679.31
344.804	664.31
345.031	655.31
345.259	627.31
345.487	617.31
345.714	617.31
345.942	614.31
346.17	653.31
346.397	651.31
346.625	606.31
346.853	607.31
347.08	618.31
347.308	602.31
347.535	601.31
347.763	630.31
347.99	593.31
348.218	612.31
348.445	610.31
348.673	615.31
348.9	598.31
349.128	575.31
349.355	582.31
349.583	597.31
349.81	603.31
350.037	601.31
350.265	593.31
350.492	591.31
350.72	551.31
350.947	587.31
351.174	618.31
351.402	593.31
351.629	618.31
351.856	611.31
352.083	583.31
352.311	571.31
352.538	578.31
352.765	583.31
352.992	584.31
353.22	569.31
353.447	565.31
353.674	543.31
353.901	551.31
354.128	553.31
354.355	534.31
354.583	557.31
354.81	585.31
355.037	569.31
355.264	580.31
355.491	568.31
355.718	570.31
355.945	585.31
356.172	586.31
356.399	580.31
356.626	597.31
356.853	588.31
357.08	583.31
357.307	578.31
357.534	569.31
357.761	586.31
357.988	570.31
358.215	571.31
358.441	544.31
358.668	564.31
358.895	591.31
359.122	567.31
359.349	583.31
359.576	566.31
359.802	577.31
360.029	578.31
360.256	577.31
360.483	585.31
360.709	565.31
360.936	564.31
361.163	585.31
361.39	585.31
361.616	583.31
361.843	575.31
362.07	587.31
362.296	577.31
362.523	573.31
362.749	558.31
362.976	573.31
363.203	561.31
363.429	566.31
363.656	585.31
363.882	540.31
364.109	562.31
364.335	557.31
364.562	545.31
364.788	560.31
365.015	546.31
365.241	541.31
365.468	528.31
365.694	565.31
365.92	549.31
366.147	548.31
366.373	585.31
366.599	542.31
366.826	546.31
367.052	559.31
367.278	573.31
367.505	567.31
367.731	548.31
367.957	553.31
368.184	551.31
368.41	567.31
368.636	554.31
368.862	564.31
369.089	561.31
369.315	582.31
369.541	559.31
369.767	575.31
369.993	564.31
370.219	552.31
370.445	590.31
370.672	587.31
370.898	568.31
371.124	583.31
371.35	602.31
371.576	593.31
371.802	597.31
372.028	574.31
372.254	586.31
372.48	601.31
372.706	585.31
372.932	604.31
373.158	591.31
373.384	614.31
373.61	612.31
373.835	582.31
374.061	607.31
374.287	594.31
374.513	594.31
374.739	613.31
374.965	635.31
375.191	627.31
375.416	628.31
375.642	609.31
375.868	603.31
376.094	618.31
376.319	599.31
376.545	598.31
376.771	589.31
376.997	584.31
377.222	571.31
377.448	580.31
377.674	601.31
377.899	561.31
378.125	577.31
378.35	579.31
378.576	568.31
378.802	579.31
379.027	588.31
379.253	545.31
379.478	544.31
379.704	566.31
379.929	575.31
380.155	565.31
380.38	553.31
380.606	579.31
380.831	575.31
381.057	590.31
381.282	564.31
381.507	569.31
381.733	570.31
381.958	565.31
382.184	574.31
382.409	585.31
382.634	597.31
382.86	582.31
383.085	597.31
383.31	590.31
383.535	607.31
383.761	607.31
383.986	614.31
384.211	624.31
384.436	617.31
384.662	642.31
384.887	664.31
385.112	643.31
385.337	647.31
385.562	661.31
385.787	656.31
386.013	692.31
386.238	664.31
386.463	641.31
386.688	648.31
386.913	671.31
387.138	648.31
387.363	657.31
387.588	649.31
387.813	662.31
388.038	637.31
388.263	640.31
388.488	654.31
388.713	665.31
388.938	642.31
389.163	653.31
389.387	649.31
389.612	621.31
389.837	630.31
390.062	629.31
390.287	645.31
390.512	658.31
390.736	652.31
390.961	674.31
391.186	679.31
391.411	705.31
391.636	689.31
391.86	715.31
392.085	750.31
392.31	733.31
392.534	712.31
392.759	691.31
392.984	700.31
393.208	687.31
393.433	685.31
393.658	674.31
393.882	697.31
394.107	685.31
394.331	692.31
394.556	707.31
394.78	697.31
395.005	712.31
395.229	734.31
395.454	707.31
395.678	741.31
395.903	740.31
396.127	709.31
396.352	714.31
396.576	700.31
396.801	675.31
397.025	722.31
397.249	712.31
397.474	714.31
397.698	721.31
397.922	729.31
398.147	722.31
398.371	763.31
398.595	783.31
398.82	791.31
399.044	859.31
399.268	909.31
399.492	1006.31
399.717	1124.31
399.941	1137.31
400.165	1019.31
400.389	935.31
400.613	855.31
400.837	874.31
401.062	825.31
401.286	809.31
401.51	804.31
401.734	801.31
401.958	830.31
402.182	804.31
402.406	797.31
402.63	823.31
402.854	890.31
403.078	879.31
403.302	884.31
403.526	902.31
403.75	925.31
403.974	926.31
404.198	896.31
404.422	924.31
404.645	930.31
404.869	895.31
405.093	906.31
405.317	907.31
405.541	882.31
405.765	856.31
405.988	853.31
406.212	881.31
406.436	885.31
406.66	919.31
406.883	904.31
407.107	960.31
407.331	1007.31
407.555	1022.31
407.778	1031.31
408.002	981.31
408.226	961.31
408.449	958.31
408.673	947.31
408.896	931.31
409.12	911.31
409.344	934.31
409.567	932.31
409.791	911.31
410.014	920.31
410.238	901.31
410.461	911.31
410.685	877.31
410.908	873.31
411.132	879.31
411.355	858.31
411.578	853.31
411.802	898.31
412.025	842.31
412.249	877.31
412.472	881.31
412.695	837.31
412.919	811.31
413.142	858.31
413.365	854.31
413.589	850.31
413.812	834.31
414.035	819.31
414.258	829.31
414.482	848.31
414.705	862.31
414.928	836.31
415.151	820.31
415.374	827.31
415.597	813.31
415.821	827.31
416.044	819.31
416.267	814.31
416.49	804.31
416.713	829.31
416.936	829.31
417.159	802.31
417.382	837.31
417.605	817.31
417.828	810.31
418.051	856.31
418.274	838.31
418.497	795.31
418.72	853.31
418.943	834.31
419.166	892.31
419.389	938.31
419.611	927.31
419.834	886.31
420.057	861.31
420.28	871.31
420.503	841.31
420.726	830.31
420.948	817.31
421.171	849.31
421.394	854.31
421.617	842.31
421.839	856.31
422.062	857.31
422.285	822.31
422.507	864.31
422.73	836.31
422.953	862.31
423.175	874.31
423.398	880.31
423.621	855.31
423.843	894.31
424.066	882.31
424.288	871.31
424.511	879.31
424.733	865.31
424.956	859.31
425.178	852.31
425.401	847.31
425.623	853.31
425.846	807.31
426.068	803.31
426.291	833.31
426.513	796.31
426.735	791.31
426.958	806.31
427.18	775.31
427.402	798.31
427.625	790.31
427.847	785.31
428.069	783.31
428.292	801.31
428.514	782.31
428.736	777.31
428.958	763.31
429.181	755.31
429.403	778.31
429.625	780.31
429.847	756.31
430.069	761.31
430.292	782.31
430.514	751.31
430.736	790.31
430.958	756.31
431.18	771.31
431.402	775.31
431.624	793.31
431.846	783.31
432.068	786.31
432.29	775.31
432.512	797.31
432.734	796.31
432.956	785.31
433.178	815.31
433.4	812.31
433.622	776.31
433.844	825.31
434.066	792.31
434.287	797.31
434.509	839.31
434.731	837.31
434.953	865.31
435.175	867.31
435.397	868.31
435.618	838.31
435.84	800.31
436.062	806.31
436.284	798.31
436.505	795.31
436.727	814.31
436.949	805.31
437.17	801.31
437.392	767.31
437.614	802.31
437.835	739.31
438.057	731.31
438.278	767.31
438.5	785.31
438.721	776.31
438.943	802.31
439.165	765.31
439.386	760.31
439.608	779.31
439.829	776.31
440.05	801.31
440.272	836.31
440.493	817.31
440.715	813.31
440.936	806.31
441.158	824.31
441.379	839.31
441.6	894.31
441.822	897.31
442.043	864.31
442.264	864.31
442.486	845.31
442.707	855.31
442.928	870.31
443.149	855.31
443.371	847.31
443.592	891.31
443.813	903.31
444.034	901.31
444.255	936.31
444.476	947.31
444.698	992.31
444.919	1033.31
445.14	1104.31
445.361	1000.31
445.582	923.31
445.803	896.31
446.024	848.31
446.245	853.31
446.466	843.31
446.687	817.31
446.908	827.31
447.129	814.31
447.35	793.31
447.571	783.31
447.792	766.31
448.013	782.31
448.234	744.31
448.455	741.31
448.675	747.31
448.896	758.31
449.117	757.31
449.338	765.31
449.559	762.31
449.779	746.31
450	738.31
450.221	786.31
450.442	751.31
450.662	743.31
450.883	761.31
451.104	768.31
451.324	765.31
451.545	747.31
451.766	765.31
451.986	743.31
452.207	765.31
452.428	739.31
452.648	760.31
452.869	715.31
453.089	758.31
453.31	741.31
453.53	745.31
453.751	730.31
453.971	740.31
454.192	717.31
454.412	721.31
454.633	737.31
454.853	737.31
455.073	730.31
455.294	723.31
455.514	723.31
455.734	709.31
455.955	706.31
456.175	711.31
456.395	713.31
456.616	714.31
456.836	716.31
457.056	692.31
457.276	696.31
457.497	729.31
457.717	712.31
457.937	705.31
458.157	759.31
458.377	730.31
458.598	750.31
458.818	777.31
459.038	773.31
459.258	777.31
459.478	798.31
459.698	819.31
459.918	864.31
460.138	855.31
460.358	928.31
460.578	924.31
460.798	932.31
461.018	914.31
461.238	904.31
461.458	933.31
461.678	888.31
461.898	915.31
462.118	910.31
462.338	957.31
462.558	1039.31
462.777	1019.31
462.997	1066.31
463.217	1166.31
463.437	1173.31
463.657	1115.31
463.876	1069.31
464.096	1059.31
464.316	1069.31
464.536	1060.31
464.755	1021.31
464.975	984.31
465.195	955.31
465.414	904.31
465.634	882.31
465.854	858.31
466.073	847.31
466.293	819.31
466.512	810.31
466.732	795.31
466.951	786.31
467.171	772.31
467.391	787.31
467.61	790.31
467.829	773.31
468.049	747.31
468.268	761.31
468.488	750.31
468.707	777.31
468.927	783.31
469.146	770.31
469.365	798.31
469.585	795.31
469.804	776.31
470.023	827.31
470.243	836.31
470.462	804.31
470.681	831.31
470.901	826.31
471.12	814.31
471.339	807.31
471.558	794.31
471.777	801.31
471.997	807.31
472.216	785.31
472.435	794.31
472.654	742.31
472.873	752.31
473.092	767.31
473.311	781.31
473.53	740.31
473.749	786.31
473.968	766.31
474.187	786.31
474.406	776.31
474.625	763.31
474.844	773.31
475.063	776.31
475.282	806.31
475.501	775.31
475.72	793.31
475.939	792.31
476.158	786.31
476.377	823.31
476.596	792.31
476.814	799.31
477.033	796.31
477.252	825.31
477.471	843.31
477.69	863.31
477.908	889.31
478.127	921.31
478.346	896.31
478.564	921.31
478.783	900.31
479.002	934.31
479.22	917.31
479.439	943.31
479.658	935.31
479.876	921.31
480.095	923.31
480.313	978.31
480.532	983.31
480.751	951.31
480.969	934.31
481.188	935.31
481.406	920.31
481.624	903.31
481.843	891.31
482.061	922.31
482.28	899.31
482.498	915.31
482.717	905.31
482.935	890.31
483.153	897.31
483.372	904.31
483.59	913.31
483.808	907.31
484.027	907.31
484.245	898.31
484.463	889.31
484.681	912.31
484.9	915.31
485.118	927.31
485.336	954.31
485.554	930.31
485.772	909.31
485.99	905.31
486.209	933.31
486.427	939.31
486.645	927.31
486.863	945.31
487.081	956.31
487.299	926.31
487.517	904.31
487.735	953.31
487.953	953.31
488.171	963.31
488.389	969.31
488.607	937.31
488.825	921.31
489.043	896.31
489.261	915.31
489.479	938.31
489.696	947.31
489.914	933.31
490.132	953.31
490.35	973.31
490.568	970.31
490.786	974.31
491.003	941.31
491.221	952.31
491.439	990.31
491.657	963.31
491.874	961.31
492.092	981.31
492.31	993.31
492.527	1004.31
492.745	1017.31
492.963	1005.31
493.18	1009.31
493.398	1014.31
493.615	994.31
493.833	978.31
494.05	994.31
494.268	1001.31
494.485	1005.31
494.703	1000.31
494.92	997.31
495.138	1009.31
495.355	1016.31
495.573	978.31
495.79	994.31
496.008	1030.31
496.225	1006.31
496.442	1005.31
496.66	1031.31
496.877	1043.31
497.094	1042.31
497.312	1072.31
497.529	1104.31
497.746	1082.31
497.963	1115.31
498.181	1158.31
498.398	1190.31
498.615	1263.31
498.832	1315.31
499.049	1393.31
499.267	1465.31
499.484	1576.31
499.701	1721.31
499.918	1867.31
500.135	2084.31
500.352	2283.31
500.569	2406.31
500.786	2351.31
501.003	2233.31
501.22	2005.31
501.437	1833.31
501.654	1655.31
501.871	1570.31
502.088	1466.31
502.305	1356.31
502.522	1307.31
502.739	1249.31
502.956	1210.31
503.172	1176.31
503.389	1110.31
503.606	1112.31
503.823	1069.31
504.04	1121.31
504.256	1089.31
504.473	1109.31
504.69	1108.31
504.907	1105.31
505.123	1047.31
505.34	967.31
505.557	979.31
505.773	991.31
505.99	934.31
506.207	888.31
506.423	886.31
506.64	888.31
506.856	894.31
507.073	885.31
507.289	863.31
507.506	879.31
507.722	862.31
507.939	839.31
508.155	877.31
508.372	843.31
508.588	804.31
508.805	837.31
509.021	831.31
509.238	835.31
509.454	832.31
509.67	828.31
509.887	813.31
510.103	789.31
510.319	801.31
510.536	803.31
510.752	797.31
510.968	772.31
511.184	802.31
511.401	785.31
511.617	793.31
511.833	767.31
512.049	795.31
512.265	786.31
512.481	788.31
512.698	790.31
512.914	787.31
513.13	784.31
513.346	786.31
513.562	771.31
513.778	793.31
513.994	800.31
514.21	789.31
514.426	797.31
514.642	802.31
514.858	798.31
515.074	814.31
515.29	839.31
515.506	809.31
515.721	806.31
515.937	824.31
516.153	830.31
516.369	862.31
516.585	873.31
516.801	871.31
517.016	906.31
517.232	921.31
517.448	965.31
517.664	1026.31
517.879	993.31
518.095	1000.31
518.311	1033.31
518.527	944.31
518.742	950.31
518.958	905.31
519.173	882.31
519.389	858.31
519.605	827.31
519.82	807.31
520.036	808.31
520.251	793.31
520.467	793.31
520.682	799.31
520.898	805.31
521.113	785.31
521.329	774.31
521.544	770.31
521.76	758.31
521.975	741.31
522.19	769.31
522.406	746.31
522.621	731.31
522.836	746.31
523.052	730.31
523.267	742.31
523.482	720.31
523.698	741.31
523.913	728.31
524.128	753.31
524.343	724.31
524.559	737.31
524.774	740.31
524.989	745.31
525.204	715.31
525.419	725.31
525.634	711.31
525.849	735.31
526.064	713.31
526.28	713.31
526.495	696.31
526.71	705.31
526.925	697.31
527.14	714.31
527.355	726.31
527.57	724.31
527.785	675.31
527.999	698.31
528.214	695.31
528.429	705.31
528.644	705.31
528.859	716.31
529.074	686.31
529.289	729.31
529.503	723.31
529.718	713.31
529.933	724.31
530.148	709.31
530.363	711.31
530.577	706.31
530.792	680.31
531.007	713.31
531.221	704.31
531.436	698.31
531.651	692.31
531.865	701.31
532.08	698.31
532.295	696.31
532.509	686.31
532.724	689.31
532.938	685.31
533.153	698.31
533.367	697.31
533.582	688.31
533.796	698.31
534.011	678.31
534.225	677.31
534.44	680.31
534.654	697.31
534.868	667.31
535.083	682.31
535.297	692.31
535.511	704.31
535.726	667.31
535.94	651.31
536.154	668.31
536.369	644.31
536.583	658.31
536.797	638.31
537.011	679.31
537.225	675.31
537.44	656.31
537.654	654.31
537.868	637.31
538.082	621.31
538.296	641.31
538.51	611.31
538.724	643.31
538.938	633.31
539.153	633.31
539.367	651.31
539.581	649.31
539.795	631.31
540.009	629.31
540.222	630.31
540.436	642.31
540.65	632.31
540.864	607.31
541.078	629.31
541.292	648.31
541.506	655.31
541.72	662.31
541.934	639.31
542.147	634.31
542.361	658.31
542.575	644.31
542.789	625.31
543.002	639.31
543.216	614.31
543.43	627.31
543.644	627.31
543.857	623.31
544.071	630.31
544.285	659.31
544.498	657.31
544.712	641.31
544.925	653.31
545.139	643.31
545.352	663.31
545.566	650.31
545.779	661.31
545.993	631.31
546.206	659.31
546.42	671.31
546.633	643.31
546.847	649.31
547.06	622.31
547.274	655.31
547.487	645.31
547.7	666.31
547.914	685.31
548.127	655.31
548.34	639.31
548.554	647.31
548.767	651.31
548.98	658.31
549.193	636.31
549.407	657.31
549.62	672.31
549.833	647.31
550.046	661.31
550.259	640.31
550.473	657.31
550.686	635.31
550.899	654.31
551.112	621.31
551.325	630.31
551.538	632.31
551.751	625.31
551.964	630.31
552.177	625.31
552.39	637.31
552.603	637.31
552.816	666.31
553.029	698.31
553.242	685.31
553.455	703.31
553.667	663.31
553.88	667.31
554.093	657.31
554.306	644.31
554.519	641.31
554.732	619.31
554.944	587.31
555.157	610.31
555.37	603.31
555.583	590.31
555.795	587.31
556.008	601.31
556.221	567.31
556.433	565.31
556.646	563.31
556.859	576.31
557.071	549.31
557.284	571.31
557.496	556.31
557.709	557.31
557.921	554.31
558.134	538.31
558.346	550.31
558.559	568.31
558.771	537.31
558.984	559.31
559.196	526.31
559.409	566.31
559.621	549.31
559.833	546.31
560.046	531.31
560.258	544.31
560.47	524.31
560.683	529.31
560.895	525.31
561.107	546.31
561.32	518.31
561.532	529.31
561.744	545.31
561.956	542.31
562.168	540.31
562.381	515.31
562.593	531.31
562.805	531.31
563.017	510.31
563.229	531.31
563.441	543.31
563.653	559.31
563.865	551.31
564.077	547.31
564.289	560.31
564.501	571.31
564.713	558.31
564.925	573.31
565.137	561.31
565.349	592.31
565.561	606.31
565.773	614.31
565.985	663.31
566.197	634.31
566.408	682.31
566.62	741.31
566.832	759.31
567.044	785.31
567.255	774.31
567.467	787.31
567.679	794.31
567.891	873.31
568.102	840.31
568.314	827.31
568.526	740.31
568.737	725.31
568.949	652.31
569.161	627.31
569.372	588.31
569.584	541.31
569.795	572.31
570.007	549.31
570.218	534.31
570.43	544.31
570.641	498.31
570.853	517.31
571.064	515.31
571.276	527.31
571.487	523.31
571.698	515.31
571.91	486.31
572.121	468.31
572.333	467.31
572.544	457.31
572.755	452.31
572.966	457.31
573.178	473.31
573.389	437.31
573.6	439.31
573.811	435.31
574.023	424.31
574.234	441.31
574.445	433.31
574.656	429.31
574.867	441.31
575.078	425.31
575.289	441.31
575.501	430.31
575.712	409.31
575.923	433.31
576.134	420.31
576.345	415.31
576.556	416.31
576.767	426.31
576.978	410.31
577.188	395.31
577.399	401.31
577.61	404.31
577.821	411.31
578.032	402.31
578.243	394.31
578.454	384.31
578.665	383.31
578.875	385.31
579.086	386.31
579.297	378.31
579.508	393.31
579.718	367.31
579.929	367.31
580.14	385.31
580.35	399.31
580.561	390.31
580.772	384.31
580.982	367.31
581.193	391.31
581.403	369.31
581.614	375.31
581.825	373.31
582.035	383.31
582.246	361.31
582.456	383.31
582.667	366.31
582.877	372.31
583.087	341.31
583.298	365.31
583.508	359.31
583.719	367.31
583.929	379.31
584.139	370.31
584.35	377.31
584.56	372.31
584.77	330.31
584.981	351.31
585.191	345.31
585.401	356.31
585.611	350.31
585.821	359.31
586.032	374.31
586.242	383.31
586.452	369.31
586.662	361.31
586.872	339.31
587.082	366.31
587.292	326.31
587.502	344.31
587.713	352.31
587.923	340.31
588.133	352.31
588.343	354.31
588.553	356.31
588.762	359.31
588.972	354.31
589.182	423.31
589.392	395.31
589.602	363.31
589.812	395.31
590.022	374.31
590.232	351.31
590.441	335.31
590.651	334.31
590.861	337.31
591.071	358.31
591.281	350.31
591.49	351.31
591.7	359.31
591.91	365.31
592.119	369.31
592.329	356.31
592.539	379.31
592.748	395.31
592.958	398.31
593.167	400.31
593.377	417.31
593.587	435.31
593.796	418.31
594.006	395.31
594.215	418.31
594.424	407.31
594.634	416.31
594.843	409.31
595.053	385.31
595.262	388.31
595.472	359.31
595.681	347.31
595.89	346.31
596.1	344.31
596.309	340.31
596.518	325.31
596.727	328.31
596.937	315.31
597.146	314.31
597.355	322.31
597.564	336.31
597.774	315.31
597.983	309.31
598.192	312.31
598.401	306.31
598.61	312.31
598.819	294.31
599.028	308.31
599.237	300.31
599.446	282.31
599.655	287.31
599.864	301.31
600.073	297.31
600.282	274.31
600.491	288.31
600.7	285.31
600.909	304.31
601.118	291.31
601.327	287.31
601.536	308.31
601.745	288.31
601.953	291.31
602.162	298.31
602.371	295.31
602.58	286.31
602.789	299.31
602.997	278.31
603.206	265.31
603.415	288.31
603.623	289.31
603.832	272.31
604.041	277.31
604.249	270.31
604.458	288.31
604.666	269.31
604.875	278.31
605.084	267.31
605.292	273.31
605.501	267.31
605.709	277.31
605.918	275.31
606.126	277.31
606.334	278.31
606.543	274.31
606.751	272.31
606.96	255.31
607.168	271.31
607.376	264.31
607.585	264.31
607.793	277.31
608.001	289.31
608.21	283.31
608.418	283.31
608.626	279.31
608.834	273.31
609.043	273.31
609.251	255.31
609.459	261.31
609.667	241.31
609.875	280.31
610.083	272.31
610.291	263.31
610.499	260.31
610.707	259.31
610.916	258.31
611.124	260.31
611.332	260.31
611.54	262.31
611.748	273.31
611.955	253.31
612.163	249.31
612.371	272.31
612.579	271.31
612.787	258.31
612.995	266.31
613.203	265.31
613.411	249.31
613.618	259.31
613.826	268.31
614.034	254.31
614.242	258.31
614.449	258.31
614.657	230.31
614.865	238.31
615.072	239.31
615.28	253.31
615.488	251.31
615.695	262.31
615.903	273.31
616.111	266.31
616.318	265.31
616.526	269.31
616.733	247.31
616.941	250.31
617.148	258.31
617.356	251.31
617.563	253.31
617.771	253.31
617.978	251.31
618.185	251.31
618.393	240.31
618.6	254.31
618.807	249.31
619.015	251.31
619.222	242.31
619.429	248.31
619.637	228.31
619.844	235.31
620.051	245.31
620.258	238.31
620.466	241.31
620.673	234.31
620.88	231.31
621.087	241.31
621.294	245.31
621.501	223.31
621.708	231.31
621.915	226.31
622.122	256.31
622.329	228.31
622.536	242.31
622.743	239.31
622.95	237.31
623.157	243.31
623.364	224.31
623.571	222.31
623.778	228.31
623.985	209.31
624.192	234.31
624.399	229.31
624.606	227.31
624.812	238.31
625.019	210.31
625.226	239.31
625.433	223.31
625.639	205.31
625.846	200.31
626.053	241.31
626.259	222.31
626.466	232.31
626.673	222.31
626.879	197.31
627.086	211.31
627.293	207.31
627.499	228.31
627.706	213.31
627.912	215.31
628.119	213.31
628.325	210.31
628.532	199.31
628.738	211.31
628.945	204.31
629.151	216.31
629.357	203.31
629.564	208.31
629.77	199.31
629.976	200.31
630.183	209.31
630.389	218.31
630.595	193.31
630.802	181.31
631.008	187.31
631.214	185.31
631.42	192.31
631.627	218.31
631.833	192.31
632.039	197.31
632.245	205.31
632.451	183.31
632.657	194.31
632.863	191.31
633.069	200.31
633.275	190.31
633.481	171.31
633.688	183.31
633.893	192.31
634.099	201.31
634.305	185.31
634.511	188.31
634.717	195.31
634.923	192.31
635.129	191.31
635.335	185.31
635.541	203.31
635.747	203.31
635.952	191.31
636.158	197.31
636.364	183.31
636.57	191.31
636.775	189.31
636.981	195.31
637.187	200.31
637.392	178.31
637.598	186.31
637.804	200.31
638.009	195.31
638.215	178.31
638.421	181.31
638.626	178.31
638.832	170.31
639.037	176.31
639.243	175.31
639.448	178.31
639.654	179.31
639.859	174.31
640.065	181.31
640.27	174.31
640.475	168.31
640.681	169.31
640.886	173.31
641.091	175.31
641.297	189.31
641.502	176.31
641.707	204.31
641.913	169.31
642.118	179.31
642.323	176.31
642.528	167.31
642.733	183.31
642.939	177.31
643.144	171.31
643.349	163.31
643.554	186.31
643.759	179.31
643.964	186.31
644.169	185.31
644.374	177.31
644.579	168.31
644.784	175.31
644.989	185.31
645.194	168.31
645.399	174.31
645.604	178.31
645.809	185.31
646.014	193.31
646.219	193.31
646.423	170.31
646.628	177.31
646.833	189.31
647.038	155.31
647.243	172.31
647.447	157.31
647.652	175.31
647.857	174.31
648.062	168.31
648.266	175.31
648.471	171.31
648.676	169.31
648.88	181.31
649.085	182.31
649.289	179.31
649.494	178.31
649.698	173.31
649.903	173.31
650.107	175.31
650.312	174.31
650.516	151.31
650.721	161.31
650.925	159.31
651.13	157.31
651.334	163.31
651.539	158.31
651.743	165.31
651.947	150.31
652.152	151.31
652.356	153.31
652.56	181.31
652.764	147.31
652.969	145.31
653.173	141.31
653.377	155.31
653.581	151.31
653.785	154.31
653.99	149.31
654.194	165.31
654.398	139.31
654.602	152.31
654.806	132.31
655.01	148.31
655.214	137.31
655.418	130.31
655.622	141.31
655.826	133.31
656.03	149.31
656.234	143.31
656.438	153.31
656.642	158.31
656.846	151.31
657.049	126.31
657.253	106.31
657.457	134.31
657.661	138.31
657.865	134.31
658.068	126.31
658.272	122.31
658.476	97.31
658.68	115.31
658.883	125.31
659.087	95.31
659.291	109.31
659.494	109.31
659.698	100.31
659.901	98.31
660.105	114.31
660.309	87.31
660.512	99.31
660.716	102.31
660.919	96.31
661.123	98.31
661.326	82.31
661.53	84.31
661.733	79.31
661.936	96.31
662.14	81.31
662.343	78.31
662.546	79.31
662.75	86.31
662.953	88.31
663.156	73.31
663.36	78.31
663.563	95.31
663.766	75.31
663.969	84.31
664.173	77.31
664.376	79.31
664.579	80.31
664.782	70.31
664.985	78.31
665.188	83.31
665.391	81.31
665.594	76.31
665.797	68.31
666	85.31
666.203	78.31
666.406	88.31
666.609	88.31
666.812	79.31
667.015	86.31
667.218	87.31
667.421	82.31
667.624	89.31
667.827	72.31
668.03	70.31
668.232	82.31
668.435	84.31
668.638	86.31
668.841	72.31
669.043	87.31
669.246	81.31
669.449	99.31
669.651	69.31
669.854	93.31
670.057	84.31
670.259	92.31
670.462	80.31
670.665	74.31
670.867	89.31
671.07	86.31
671.272	76.31
671.475	85.31
671.677	82.31
671.88	72.31
672.082	72.31
672.284	90.31
672.487	95.31
672.689	75.31
672.892	74.31
