Data from SnStandardFlinnAPT0064_LampEnergy10_LIBS07252019.E.O._I.C._HRD10591_15-19-24-493.txt Node
Date: Thu Jul 25 15:19:24 EDT 2019
User: cochatt
Spectrometer: HR+D1059
Trigger mode: 1
Integration Time (sec): 1.000000E-1
Scans to average: 1
Electric dark correction enabled: true
Nonlinearity correction enabled: false
Boxcar width: 0
XAxis mode: Wavelengths
Number of Pixels in Spectrum: 2048
>>>>>Begin Spectral Data<<<<<
223.165	-6.88
223.4	-6.88
223.635	-6.88
223.869	-19.88
224.104	-21.88
224.338	-33.88
224.573	-30.88
224.808	-17.88
225.042	-19.88
225.277	1.12
225.511	0.12
225.746	20.12
225.98	18.12
226.215	28.12
226.449	12.12
226.683	20.12
226.918	28.12
227.152	23.12
227.387	25.12
227.621	38.12
227.856	51.12
228.09	52.12
228.324	43.12
228.559	65.12
228.793	132.12
229.027	338.12
229.262	360.12
229.496	321.12
229.73	311.12
229.964	300.12
230.199	308.12
230.433	309.12
230.667	333.12
230.901	338.12
231.136	360.12
231.37	363.12
231.604	403.12
231.838	454.12
232.072	549.12
232.306	582.12
232.541	492.12
232.775	443.12
233.009	450.12
233.243	460.12
233.477	490.12
233.711	573.12
233.945	624.12
234.179	565.12
234.413	496.12
234.647	491.12
234.881	504.12
235.115	564.12
235.349	682.12
235.583	823.12
235.817	1084.12
236.051	1028.12
236.285	722.12
236.519	574.12
236.753	524.12
236.987	529.12
237.221	581.12
237.455	577.12
237.689	493.12
237.922	483.12
238.156	498.12
238.39	512.12
238.624	502.12
238.858	518.12
239.091	496.12
239.325	499.12
239.559	529.12
239.793	539.12
240.027	552.12
240.26	558.12
240.494	601.12
240.728	607.12
240.961	653.12
241.195	698.12
241.429	713.12
241.662	747.12
241.896	831.12
242.13	1003.12
242.363	1364.12
242.597	1806.12
242.83	1702.12
243.064	1737.12
243.298	1959.12
243.531	1642.12
243.765	1032.12
243.998	830.12
244.232	746.12
244.465	718.12
244.699	686.12
244.932	683.12
245.166	684.12
245.399	690.12
245.633	709.12
245.866	712.12
246.099	701.12
246.333	675.12
246.566	698.12
246.8	644.12
247.033	666.12
247.266	673.12
247.5	691.12
247.733	721.12
247.966	732.12
248.2	793.12
248.433	902.12
248.666	1038.12
248.899	1000.12
249.133	855.12
249.366	904.12
249.599	995.12
249.832	1170.12
250.066	1166.12
250.299	894.12
250.532	808.12
250.765	756.12
250.998	758.12
251.231	736.12
251.465	730.12
251.698	744.12
251.931	748.12
252.164	763.12
252.397	781.12
252.63	789.12
252.863	793.12
253.096	776.12
253.329	814.12
253.562	787.12
253.795	796.12
254.028	808.12
254.261	848.12
254.494	911.12
254.727	1059.12
254.96	1304.12
255.193	1316.12
255.426	1022.12
255.659	924.12
255.892	890.12
256.124	888.12
256.357	893.12
256.59	924.12
256.823	1024.12
257.056	1193.12
257.289	1491.12
257.521	1586.12
257.754	1268.12
257.987	999.12
258.22	952.12
258.452	924.12
258.685	924.12
258.918	953.12
259.151	1042.12
259.383	1134.12
259.616	1277.12
259.849	1329.12
260.081	1136.12
260.314	997.12
260.547	974.12
260.779	974.12
261.012	961.12
261.244	955.12
261.477	1000.12
261.71	988.12
261.942	979.12
262.175	983.12
262.407	1006.12
262.64	1039.12
262.872	1100.12
263.105	1134.12
263.337	1192.12
263.57	1224.12
263.802	1288.12
264.035	1304.12
264.267	1286.12
264.499	1352.12
264.732	1366.12
264.964	1370.12
265.197	1418.12
265.429	1388.12
265.661	1426.12
265.894	1558.12
266.126	1756.12
266.358	1964.12
266.591	1986.12
266.823	1636.12
267.055	1462.12
267.287	1367.12
267.52	1337.12
267.752	1291.12
267.984	1266.12
268.216	1254.12
268.448	1204.12
268.681	1246.12
268.913	1229.12
269.145	1237.12
269.377	1250.12
269.609	1280.12
269.841	1269.12
270.073	1392.12
270.306	1693.12
270.538	2333.12
270.77	3458.12
271.002	4296.12
271.234	3072.12
271.466	2034.12
271.698	1629.12
271.93	1467.12
272.162	1372.12
272.394	1321.12
272.626	1282.12
272.858	1253.12
273.09	1234.12
273.322	1227.12
273.553	1215.12
273.785	1217.12
274.017	1204.12
274.249	1240.12
274.481	1213.12
274.713	1236.12
274.945	1223.12
275.176	1230.12
275.408	1217.12
275.64	1194.12
275.872	1223.12
276.104	1233.12
276.335	1254.12
276.567	1274.12
276.799	1300.12
277.031	1304.12
277.262	1343.12
277.494	1468.12
277.726	1610.12
277.957	1963.12
278.189	2277.12
278.421	2127.12
278.652	1847.12
278.884	1721.12
279.115	1560.12
279.347	1468.12
279.579	1462.12
279.81	1442.12
280.042	1445.12
280.273	1461.12
280.505	1484.12
280.736	1556.12
280.968	1682.12
281.199	1843.12
281.431	2170.12
281.662	2214.12
281.894	1845.12
282.125	1720.12
282.356	1704.12
282.588	1771.12
282.819	1796.12
283.051	1912.12
283.282	2148.12
283.513	2651.12
283.745	3910.12
283.976	6131.12
284.207	8678.12
284.439	7993.12
284.67	5048.12
284.901	4238.12
285.132	4208.12
285.364	3963.12
285.595	2970.12
285.826	2635.12
286.057	3066.12
286.288	4196.12
286.52	5712.12
286.751	5362.12
286.982	3360.12
287.213	2488.12
287.444	2084.12
287.675	1940.12
287.906	1879.12
288.138	1795.12
288.369	1760.12
288.6	1744.12
288.831	1692.12
289.062	1699.12
289.293	1713.12
289.524	1680.12
289.755	1708.12
289.986	1742.12
290.217	1687.12
290.448	1729.12
290.679	1763.12
290.91	1843.12
291.141	1918.12
291.371	2098.12
291.602	2207.12
291.833	1980.12
292.064	1814.12
292.295	1716.12
292.526	1684.12
292.757	1616.12
292.987	1665.12
293.218	1612.12
293.449	1608.12
293.68	1591.12
293.91	1585.12
294.141	1563.12
294.372	1583.12
294.603	1565.12
294.833	1604.12
295.064	1616.12
295.295	1592.12
295.525	1563.12
295.756	1567.12
295.987	1554.12
296.217	1598.12
296.448	1612.12
296.679	1584.12
296.909	1553.12
297.14	1598.12
297.37	1634.12
297.601	1628.12
297.831	1658.12
298.062	1639.12
298.292	1644.12
298.523	1754.12
298.753	1700.12
298.984	1730.12
299.214	1769.12
299.445	1804.12
299.675	1834.12
299.905	1852.12
300.136	1976.12
300.366	2278.12
300.597	2874.12
300.827	4143.12
301.057	5737.12
301.288	5752.12
301.518	3778.12
301.748	2782.12
301.979	2471.12
302.209	2373.12
302.439	2426.12
302.669	2587.12
302.9	3148.12
303.13	4487.12
303.36	6696.12
303.59	8989.12
303.82	7890.12
304.051	4699.12
304.281	3341.12
304.511	2711.12
304.741	2507.12
304.971	2324.12
305.201	2199.12
305.431	2036.12
305.661	1968.12
305.891	1936.12
306.121	1906.12
306.352	1936.12
306.582	1866.12
306.812	1868.12
307.042	1889.12
307.272	1828.12
307.502	1821.12
307.731	1849.12
307.961	1842.12
308.191	1848.12
308.421	1817.12
308.651	1857.12
308.881	1825.12
309.111	1802.12
309.341	1817.12
309.571	1885.12
309.8	1832.12
310.03	1828.12
310.26	1872.12
310.49	1845.12
310.72	1846.12
310.949	1892.12
311.179	1876.12
311.409	1943.12
311.639	1963.12
311.868	1946.12
312.098	1957.12
312.328	1901.12
312.557	1952.12
312.787	1941.12
313.017	2002.12
313.246	2018.12
313.476	2035.12
313.706	2134.12
313.935	2249.12
314.165	2419.12
314.394	2531.12
314.624	2388.12
314.853	2220.12
315.083	2185.12
315.312	2188.12
315.542	2214.12
315.771	2294.12
316.001	2329.12
316.23	2390.12
316.46	2523.12
316.689	2794.12
316.919	3448.12
317.148	4964.12
317.377	7771.12
317.607	11293.12
317.836	11821.12
318.065	7414.12
318.295	4721.12
318.524	3746.12
318.753	3201.12
318.983	2930.12
319.212	2746.12
319.441	2546.12
319.67	2544.12
319.9	2519.12
320.129	2446.12
320.358	2362.12
320.587	2401.12
320.816	2422.12
321.046	2385.12
321.275	2405.12
321.504	2430.12
321.733	2465.12
321.962	2585.12
322.191	2612.12
322.42	2578.12
322.649	2538.12
322.878	2524.12
323.108	2518.12
323.337	2554.12
323.566	2590.12
323.795	2671.12
324.024	2698.12
324.253	2829.12
324.482	2923.12
324.71	3112.12
324.939	3335.12
325.168	3370.12
325.397	3565.12
325.626	4318.12
325.855	6056.12
326.084	9449.12
326.313	13416.12
326.542	14178.12
326.77	10053.12
326.999	6551.12
327.228	5372.12
327.457	5066.12
327.686	5081.12
327.914	5322.12
328.143	6130.12
328.372	7398.12
328.6	7962.12
328.829	7128.12
329.058	5927.12
329.287	5232.12
329.515	4764.12
329.744	4446.12
329.972	4096.12
330.201	3938.12
330.43	3830.12
330.658	3646.12
330.887	3572.12
331.115	3499.12
331.344	3531.12
331.572	3510.12
331.801	3541.12
332.03	3500.12
332.258	3586.12
332.486	3860.12
332.715	4392.12
332.943	5536.12
333.172	6961.12
333.4	7065.12
333.629	5290.12
333.857	4688.12
334.085	4604.12
334.314	4787.12
334.542	5192.12
334.771	6060.12
334.999	7470.12
335.227	9420.12
335.455	10559.12
335.684	9459.12
335.912	7788.12
336.14	6552.12
336.369	5825.12
336.597	5266.12
336.825	4884.12
337.053	4612.12
337.281	4249.12
337.51	4037.12
337.738	3886.12
337.966	3680.12
338.194	3545.12
338.422	3453.12
338.65	3328.12
338.878	3314.12
339.106	3230.12
339.334	3170.12
339.562	3124.12
339.79	3071.12
340.018	3058.12
340.246	3019.12
340.474	3033.12
340.702	2969.12
340.93	2977.12
341.158	2985.12
341.386	2960.12
341.614	2959.12
341.842	2898.12
342.07	2859.12
342.298	2783.12
342.526	2722.12
342.754	2732.12
342.981	2733.12
343.209	2676.12
343.437	2672.12
343.665	2727.12
343.893	2793.12
344.12	2808.12
344.348	2693.12
344.576	2725.12
344.804	2722.12
345.031	2582.12
345.259	2579.12
345.487	2602.12
345.714	2554.12
345.942	2521.12
346.17	2555.12
346.397	2566.12
346.625	2534.12
346.853	2463.12
347.08	2477.12
347.308	2494.12
347.535	2550.12
347.763	2488.12
347.99	2469.12
348.218	2480.12
348.445	2416.12
348.673	2424.12
348.9	2483.12
349.128	2457.12
349.355	2458.12
349.583	2412.12
349.81	2379.12
350.037	2392.12
350.265	2378.12
350.492	2409.12
350.72	2370.12
350.947	2361.12
351.174	2393.12
351.402	2433.12
351.629	2401.12
351.856	2379.12
352.083	2402.12
352.311	2360.12
352.538	2323.12
352.765	2382.12
352.992	2316.12
353.22	2310.12
353.447	2345.12
353.674	2360.12
353.901	2392.12
354.128	2344.12
354.355	2328.12
354.583	2404.12
354.81	2364.12
355.037	2409.12
355.264	2417.12
355.491	2458.12
355.718	2437.12
355.945	2436.12
356.172	2417.12
356.399	2454.12
356.626	2427.12
356.853	2489.12
357.08	2482.12
357.307	2538.12
357.534	2536.12
357.761	2580.12
357.988	2569.12
358.215	2553.12
358.441	2542.12
358.668	2525.12
358.895	2563.12
359.122	2525.12
359.349	2520.12
359.576	2509.12
359.802	2534.12
360.029	2515.12
360.256	2517.12
360.483	2506.12
360.709	2586.12
360.936	2562.12
361.163	2507.12
361.39	2492.12
361.616	2491.12
361.843	2573.12
362.07	2532.12
362.296	2493.12
362.523	2586.12
362.749	2541.12
362.976	2534.12
363.203	2494.12
363.429	2473.12
363.656	2514.12
363.882	2528.12
364.109	2507.12
364.335	2527.12
364.562	2517.12
364.788	2536.12
365.015	2589.12
365.241	2661.12
365.468	2842.12
365.694	2944.12
365.92	2906.12
366.147	2638.12
366.373	2633.12
366.599	2570.12
366.826	2577.12
367.052	2569.12
367.278	2556.12
367.505	2555.12
367.731	2523.12
367.957	2567.12
368.184	2614.12
368.41	2643.12
368.636	2628.12
368.862	2641.12
369.089	2641.12
369.315	2604.12
369.541	2628.12
369.767	2596.12
369.993	2585.12
370.219	2562.12
370.445	2620.12
370.672	2644.12
370.898	2653.12
371.124	2632.12
371.35	2663.12
371.576	2656.12
371.802	2702.12
372.028	2729.12
372.254	2704.12
372.48	2699.12
372.706	2756.12
372.932	2750.12
373.158	2733.12
373.384	2775.12
373.61	2731.12
373.835	2769.12
374.061	2780.12
374.287	2783.12
374.513	2847.12
374.739	2842.12
374.965	2829.12
375.191	2830.12
375.416	2859.12
375.642	2750.12
375.868	2806.12
376.094	2750.12
376.319	2721.12
376.545	2755.12
376.771	2741.12
376.997	2683.12
377.222	2705.12
377.448	2693.12
377.674	2697.12
377.899	2700.12
378.125	2726.12
378.35	2689.12
378.576	2714.12
378.802	2760.12
379.027	2825.12
379.253	2878.12
379.478	3043.12
379.704	3700.12
379.929	5372.12
380.155	8529.12
380.38	9428.12
380.606	5729.12
380.831	3924.12
381.057	3318.12
381.282	3008.12
381.507	2885.12
381.733	2825.12
381.958	2754.12
382.184	2709.12
382.409	2722.12
382.634	2661.12
382.86	2640.12
383.085	2681.12
383.31	2653.12
383.535	2662.12
383.761	2623.12
383.986	2710.12
384.211	2736.12
384.436	2736.12
384.662	2739.12
384.887	2776.12
385.112	2755.12
385.337	2758.12
385.562	2758.12
385.787	2730.12
386.013	2801.12
386.238	2718.12
386.463	2727.12
386.688	2788.12
386.913	2716.12
387.138	2769.12
387.363	2708.12
387.588	2688.12
387.813	2736.12
388.038	2748.12
388.263	2713.12
388.488	2776.12
388.713	2715.12
388.938	2733.12
389.163	2739.12
389.387	2715.12
389.612	2660.12
389.837	2752.12
390.062	2701.12
390.287	2732.12
390.512	2746.12
390.736	2838.12
390.961	2808.12
391.186	2821.12
391.411	2889.12
391.636	2841.12
391.86	2913.12
392.085	2878.12
392.31	2870.12
392.534	2820.12
392.759	2820.12
392.984	2817.12
393.208	2844.12
393.433	2885.12
393.658	2852.12
393.882	2742.12
394.107	2733.12
394.331	2746.12
394.556	2728.12
394.78	2784.12
395.005	2806.12
395.229	2770.12
395.454	2827.12
395.678	2855.12
395.903	2872.12
396.127	2840.12
396.352	2818.12
396.576	2770.12
396.801	2836.12
397.025	2916.12
397.249	2896.12
397.474	2837.12
397.698	2915.12
397.922	2921.12
398.147	2882.12
398.371	2918.12
398.595	2956.12
398.82	3009.12
399.044	3158.12
399.268	3278.12
399.492	3463.12
399.717	3568.12
399.941	3614.12
400.165	3396.12
400.389	3359.12
400.613	3174.12
400.837	3072.12
401.062	3050.12
401.286	3021.12
401.51	3009.12
401.734	2956.12
401.958	3009.12
402.182	3036.12
402.406	2968.12
402.63	3077.12
402.854	3046.12
403.078	3013.12
403.302	3040.12
403.526	3099.12
403.75	3076.12
403.974	3140.12
404.198	3061.12
404.422	3109.12
404.645	3110.12
404.869	3139.12
405.093	3131.12
405.317	3119.12
405.541	3187.12
405.765	3219.12
405.988	3255.12
406.212	3287.12
406.436	3210.12
406.66	3243.12
406.883	3215.12
407.107	3254.12
407.331	3356.12
407.555	3387.12
407.778	3372.12
408.002	3355.12
408.226	3371.12
408.449	3293.12
408.673	3269.12
408.896	3202.12
409.12	3127.12
409.344	3173.12
409.567	3126.12
409.791	3170.12
410.014	3153.12
410.238	3083.12
410.461	3122.12
410.685	3076.12
410.908	3105.12
411.132	3088.12
411.355	2984.12
411.578	2962.12
411.802	2976.12
412.025	3033.12
412.249	3008.12
412.472	3000.12
412.695	3009.12
412.919	2902.12
413.142	2997.12
413.365	2898.12
413.589	2944.12
413.812	2924.12
414.035	2960.12
414.258	2952.12
414.482	2912.12
414.705	2970.12
414.928	2936.12
415.151	2943.12
415.374	3002.12
415.597	2913.12
415.821	2859.12
416.044	2816.12
416.267	2803.12
416.49	2859.12
416.713	2804.12
416.936	2828.12
417.159	2808.12
417.382	2824.12
417.605	2781.12
417.828	2811.12
418.051	2864.12
418.274	2845.12
418.497	2843.12
418.72	2953.12
418.943	2894.12
419.166	3056.12
419.389	3170.12
419.611	3119.12
419.834	3048.12
420.057	2999.12
420.28	2902.12
420.503	2812.12
420.726	2819.12
420.948	2788.12
421.171	2868.12
421.394	2859.12
421.617	2832.12
421.839	2843.12
422.062	2855.12
422.285	2828.12
422.507	2884.12
422.73	2896.12
422.953	2965.12
423.175	2977.12
423.398	2919.12
423.621	2808.12
423.843	2852.12
424.066	2824.12
424.288	2838.12
424.511	2872.12
424.733	2838.12
424.956	2774.12
425.178	2794.12
425.401	2795.12
425.623	2805.12
425.846	2690.12
426.068	2769.12
426.291	2686.12
426.513	2718.12
426.735	2741.12
426.958	2712.12
427.18	2690.12
427.402	2672.12
427.625	2668.12
427.847	2608.12
428.069	2654.12
428.292	2673.12
428.514	2643.12
428.736	2656.12
428.958	2666.12
429.181	2574.12
429.403	2587.12
429.625	2566.12
429.847	2651.12
430.069	2718.12
430.292	2775.12
430.514	2805.12
430.736	2857.12
430.958	2700.12
431.18	2576.12
431.402	2647.12
431.624	2604.12
431.846	2644.12
432.068	2608.12
432.29	2587.12
432.512	2582.12
432.734	2581.12
432.956	2596.12
433.178	2589.12
433.4	2552.12
433.622	2663.12
433.844	2665.12
434.066	2635.12
434.287	2609.12
434.509	2682.12
434.731	2710.12
434.953	2721.12
435.175	2665.12
435.397	2739.12
435.618	2630.12
435.84	2680.12
436.062	2616.12
436.284	2614.12
436.505	2585.12
436.727	2621.12
436.949	2602.12
437.17	2599.12
437.392	2533.12
437.614	2562.12
437.835	2454.12
438.057	2574.12
438.278	2497.12
438.5	2537.12
438.721	2590.12
438.943	2661.12
439.165	2729.12
439.386	2794.12
439.608	2706.12
439.829	2750.12
440.05	2833.12
440.272	2873.12
440.493	2740.12
440.715	2714.12
440.936	2704.12
441.158	2729.12
441.379	2717.12
441.6	2856.12
441.822	2917.12
442.043	3062.12
442.264	3171.12
442.486	3009.12
442.707	2900.12
442.928	2800.12
443.149	2827.12
443.371	2797.12
443.592	2807.12
443.813	2870.12
444.034	2793.12
444.255	2836.12
444.476	2884.12
444.698	2944.12
444.919	2992.12
445.14	3034.12
445.361	2879.12
445.582	2858.12
445.803	2767.12
446.024	2789.12
446.245	2776.12
446.466	2773.12
446.687	2726.12
446.908	2740.12
447.129	2685.12
447.35	2629.12
447.571	2640.12
447.792	2579.12
448.013	2590.12
448.234	2603.12
448.455	2555.12
448.675	2634.12
448.896	2709.12
449.117	2814.12
449.338	3034.12
449.559	3133.12
449.779	2805.12
450	2645.12
450.221	2540.12
450.442	2565.12
450.662	2598.12
450.883	2545.12
451.104	2524.12
451.324	2526.12
451.545	2527.12
451.766	2598.12
451.986	2645.12
452.207	2899.12
452.428	3789.12
452.648	5954.12
452.869	4942.12
453.089	3352.12
453.31	3065.12
453.53	3096.12
453.751	3142.12
453.971	3270.12
454.192	3181.12
454.412	2753.12
454.633	2618.12
454.853	2528.12
455.073	2460.12
455.294	2487.12
455.514	2447.12
455.734	2436.12
455.955	2397.12
456.175	2410.12
456.395	2387.12
456.616	2447.12
456.836	2444.12
457.056	2473.12
457.276	2486.12
457.497	2628.12
457.717	2684.12
457.937	2587.12
458.157	2522.12
458.377	2565.12
458.598	2604.12
458.818	2565.12
459.038	2578.12
459.258	2536.12
459.478	2632.12
459.698	2642.12
459.918	2681.12
460.138	2662.12
460.358	2761.12
460.578	2766.12
460.798	2790.12
461.018	2820.12
461.238	2826.12
461.458	2917.12
461.678	2894.12
461.898	2945.12
462.118	3005.12
462.338	3008.12
462.558	3050.12
462.777	3095.12
462.997	3229.12
463.217	3345.12
463.437	3499.12
463.657	3568.12
463.876	3581.12
464.096	3347.12
464.316	3218.12
464.536	3144.12
464.755	3101.12
464.975	3029.12
465.195	2905.12
465.414	2846.12
465.634	2737.12
465.854	2722.12
466.073	2709.12
466.293	2701.12
466.512	2641.12
466.732	2714.12
466.951	2877.12
467.171	3070.12
467.391	2981.12
467.61	2758.12
467.829	2672.12
468.049	2600.12
468.268	2556.12
468.488	2594.12
468.707	2566.12
468.927	2656.12
469.146	2570.12
469.365	2613.12
469.585	2635.12
469.804	2701.12
470.023	2790.12
470.243	2802.12
470.462	2915.12
470.681	3041.12
470.901	3378.12
471.12	3838.12
471.339	3818.12
471.558	3230.12
471.777	2961.12
471.997	2772.12
472.216	2702.12
472.435	2663.12
472.654	2615.12
472.873	2625.12
473.092	2616.12
473.311	2573.12
473.53	2647.12
473.749	2686.12
473.968	2836.12
474.187	2650.12
474.406	2600.12
474.625	2624.12
474.844	2590.12
475.063	2589.12
475.282	2610.12
475.501	2675.12
475.72	2622.12
475.939	2686.12
476.158	2717.12
476.377	2775.12
476.596	2760.12
476.814	2779.12
477.033	2781.12
477.252	2770.12
477.471	2817.12
477.69	2884.12
477.908	2914.12
478.127	2908.12
478.346	2964.12
478.564	2988.12
478.783	3033.12
479.002	3062.12
479.22	3063.12
479.439	3141.12
479.658	3125.12
479.876	3100.12
480.095	3115.12
480.313	3190.12
480.532	3196.12
480.751	3255.12
480.969	3222.12
481.188	3096.12
481.406	3160.12
481.624	3168.12
481.843	3190.12
482.061	3212.12
482.28	3136.12
482.498	3139.12
482.717	3178.12
482.935	3180.12
483.153	3265.12
483.372	3324.12
483.59	3368.12
483.808	3329.12
484.027	3461.12
484.245	3696.12
484.463	4112.12
484.681	4564.12
484.9	4236.12
485.118	3921.12
485.336	3796.12
485.554	3868.12
485.772	4141.12
485.99	4697.12
486.209	5008.12
486.427	4209.12
486.645	3721.12
486.863	3565.12
487.081	3498.12
487.299	3439.12
487.517	3404.12
487.735	3412.12
487.953	3374.12
488.171	3339.12
488.389	3301.12
488.607	3260.12
488.825	3280.12
489.043	3269.12
489.261	3269.12
489.479	3265.12
489.696	3280.12
489.914	3274.12
490.132	3290.12
490.35	3244.12
490.568	3270.12
490.786	3342.12
491.003	3364.12
491.221	3425.12
491.439	3432.12
491.657	3346.12
491.874	3386.12
492.092	3450.12
492.31	3438.12
492.527	3407.12
492.745	3450.12
492.963	3444.12
493.18	3462.12
493.398	3389.12
493.615	3372.12
493.833	3389.12
494.05	3356.12
494.268	3415.12
494.485	3387.12
494.703	3479.12
494.92	3410.12
495.138	3386.12
495.355	3417.12
495.573	3466.12
495.79	3433.12
496.008	3502.12
496.225	3465.12
496.442	3586.12
496.66	3682.12
496.877	3832.12
497.094	3829.12
497.312	3694.12
497.529	3697.12
497.746	3710.12
497.963	3793.12
498.181	3833.12
498.398	3950.12
498.615	4096.12
498.832	4239.12
499.049	4424.12
499.267	4819.12
499.484	5066.12
499.701	4967.12
499.918	5119.12
500.135	5394.12
500.352	5644.12
500.569	5711.12
500.786	5581.12
501.003	5445.12
501.22	5256.12
501.437	4912.12
501.654	4769.12
501.871	4472.12
502.088	4385.12
502.305	4198.12
502.522	4133.12
502.739	4036.12
502.956	3866.12
503.172	3808.12
503.389	3680.12
503.606	3613.12
503.823	3541.12
504.04	3584.12
504.256	3513.12
504.473	3546.12
504.69	3500.12
504.907	3493.12
505.123	3445.12
505.34	3299.12
505.557	3285.12
505.773	3254.12
505.99	3217.12
506.207	3088.12
506.423	3063.12
506.64	3086.12
506.856	3083.12
507.073	3008.12
507.289	3032.12
507.506	3026.12
507.722	3018.12
507.939	2968.12
508.155	2938.12
508.372	2974.12
508.588	2915.12
508.805	2978.12
509.021	2983.12
509.238	2967.12
509.454	3169.12
509.67	3414.12
509.887	3156.12
510.103	3093.12
510.319	2956.12
510.536	2933.12
510.752	2901.12
510.968	2899.12
511.184	2843.12
511.401	2900.12
511.617	2809.12
511.833	2832.12
512.049	2768.12
512.265	2814.12
512.481	2831.12
512.698	2834.12
512.914	2820.12
513.13	2808.12
513.346	2807.12
513.562	2865.12
513.778	2884.12
513.994	2856.12
514.21	2994.12
514.426	3168.12
514.642	3317.12
514.858	3081.12
515.074	2910.12
515.29	2903.12
515.506	2911.12
515.721	2910.12
515.937	2940.12
516.153	2942.12
516.369	2942.12
516.585	2978.12
516.801	3015.12
517.016	3065.12
517.232	3113.12
517.448	3160.12
517.664	3284.12
517.879	3192.12
518.095	3223.12
518.311	3218.12
518.527	3206.12
518.742	3226.12
518.958	3180.12
519.173	3266.12
519.389	3154.12
519.605	2980.12
519.82	2984.12
520.036	2892.12
520.251	2862.12
520.467	2861.12
520.682	2840.12
520.898	2824.12
521.113	2752.12
521.329	2760.12
521.544	2840.12
521.76	2792.12
521.975	2747.12
522.19	2787.12
522.406	2785.12
522.621	2761.12
522.836	2727.12
523.052	2735.12
523.267	2741.12
523.482	2685.12
523.698	2741.12
523.913	2697.12
524.128	2684.12
524.343	2717.12
524.559	2709.12
524.774	2671.12
524.989	2713.12
525.204	2712.12
525.419	2682.12
525.634	2653.12
525.849	2694.12
526.064	2720.12
526.28	2693.12
526.495	2691.12
526.71	2684.12
526.925	2703.12
527.14	2680.12
527.355	2697.12
527.57	2668.12
527.785	2728.12
527.999	2737.12
528.214	2730.12
528.429	2802.12
528.644	2738.12
528.859	2837.12
529.074	2896.12
529.289	2924.12
529.503	2885.12
529.718	2894.12
529.933	2884.12
530.148	2849.12
530.363	2934.12
530.577	2890.12
530.792	2920.12
531.007	2898.12
531.221	2925.12
531.436	2986.12
531.651	3036.12
531.865	3012.12
532.08	3109.12
532.295	3172.12
532.509	3412.12
532.724	3468.12
532.938	3460.12
533.153	3617.12
533.367	3836.12
533.582	4020.12
533.796	3994.12
534.011	3816.12
534.225	3682.12
534.44	3525.12
534.654	3434.12
534.868	3372.12
535.083	3276.12
535.297	3217.12
535.511	3190.12
535.726	3125.12
535.94	3082.12
536.154	3052.12
536.369	3015.12
536.583	2974.12
536.797	2947.12
537.011	2939.12
537.225	2874.12
537.44	2877.12
537.654	2795.12
537.868	2763.12
538.082	2755.12
538.296	2771.12
538.51	2754.12
538.724	2751.12
538.938	2727.12
539.153	2662.12
539.367	2714.12
539.581	2659.12
539.795	2639.12
540.009	2596.12
540.222	2623.12
540.436	2618.12
540.65	2667.12
540.864	2658.12
541.078	2730.12
541.292	2940.12
541.506	3390.12
541.72	3630.12
541.934	3064.12
542.147	2886.12
542.361	2800.12
542.575	2696.12
542.789	2655.12
543.002	2592.12
543.216	2541.12
543.43	2529.12
543.644	2526.12
543.857	2553.12
544.071	2533.12
544.285	2562.12
544.498	2543.12
544.712	2496.12
544.925	2533.12
545.139	2580.12
545.352	2549.12
545.566	2581.12
545.779	2565.12
545.993	2516.12
546.206	2594.12
546.42	2555.12
546.633	2519.12
546.847	2541.12
547.06	2524.12
547.274	2515.12
547.487	2498.12
547.7	2553.12
547.914	2537.12
548.127	2564.12
548.34	2570.12
548.554	2517.12
548.767	2573.12
548.98	2563.12
549.193	2585.12
549.407	2536.12
549.62	2537.12
549.833	2591.12
550.046	2562.12
550.259	2588.12
550.473	2515.12
550.686	2554.12
550.899	2583.12
551.112	2548.12
551.325	2584.12
551.538	2551.12
551.751	2533.12
551.964	2536.12
552.177	2619.12
552.39	2612.12
552.603	2668.12
552.816	2713.12
553.029	2724.12
553.242	2768.12
553.455	2841.12
553.667	2817.12
553.88	2837.12
554.093	2873.12
554.306	2930.12
554.519	2921.12
554.732	3048.12
554.944	3050.12
555.157	3061.12
555.37	3228.12
555.583	3330.12
555.795	3542.12
556.008	3841.12
556.221	4260.12
556.433	4549.12
556.646	4502.12
556.859	4392.12
557.071	4147.12
557.284	4049.12
557.496	3911.12
557.709	3802.12
557.921	3813.12
558.134	3769.12
558.346	3832.12
558.559	3980.12
558.771	4214.12
558.984	4648.12
559.196	5010.12
559.409	4723.12
559.621	4406.12
559.833	4102.12
560.046	3804.12
560.258	3607.12
560.47	3473.12
560.683	3295.12
560.895	3235.12
561.107	3098.12
561.32	2989.12
561.532	2918.12
561.744	2847.12
561.956	2743.12
562.168	2753.12
562.381	2673.12
562.593	2720.12
562.805	2760.12
563.017	2801.12
563.229	2825.12
563.441	3401.12
563.653	2793.12
563.865	2576.12
564.077	2495.12
564.289	2444.12
564.501	2404.12
564.713	2475.12
564.925	2377.12
565.137	2368.12
565.349	2384.12
565.561	2372.12
565.773	2431.12
565.985	2431.12
566.197	2410.12
566.408	2516.12
566.62	2549.12
566.832	2558.12
567.044	2617.12
567.255	2622.12
567.467	2664.12
567.679	2749.12
567.891	2853.12
568.102	3220.12
568.314	3650.12
568.526	3172.12
568.737	2754.12
568.949	2518.12
569.161	2382.12
569.372	2329.12
569.584	2180.12
569.795	2174.12
570.007	2210.12
570.218	2278.12
570.43	2269.12
570.641	2104.12
570.853	2013.12
571.064	1990.12
571.276	1969.12
571.487	1952.12
571.698	1943.12
571.91	1882.12
572.121	1861.12
572.333	1924.12
572.544	1893.12
572.755	2013.12
572.966	2339.12
573.178	2149.12
573.389	1959.12
573.6	1814.12
573.811	1777.12
574.023	1807.12
574.234	1730.12
574.445	1715.12
574.656	1711.12
574.867	1737.12
575.078	1756.12
575.289	1764.12
575.501	1715.12
575.712	1740.12
575.923	1709.12
576.134	1727.12
576.345	1738.12
576.556	1754.12
576.767	1700.12
576.978	1722.12
577.188	1757.12
577.399	1750.12
577.61	1789.12
577.821	1797.12
578.032	1786.12
578.243	1844.12
578.454	1851.12
578.665	1916.12
578.875	1993.12
579.086	2044.12
579.297	2154.12
579.508	2249.12
579.718	2463.12
579.929	2822.12
580.14	3272.12
580.35	3333.12
580.561	3075.12
580.772	2863.12
580.982	2609.12
581.193	2402.12
581.403	2301.12
581.614	2148.12
581.825	2074.12
582.035	1955.12
582.246	1909.12
582.456	1847.12
582.667	1864.12
582.877	1815.12
583.087	1774.12
583.298	1686.12
583.508	1667.12
583.719	1565.12
583.929	1575.12
584.139	1539.12
584.35	1502.12
584.56	1510.12
584.77	1468.12
584.981	1456.12
585.191	1435.12
585.401	1390.12
585.611	1376.12
585.821	1404.12
586.032	1412.12
586.242	1356.12
586.452	1342.12
586.662	1345.12
586.872	1328.12
587.082	1297.12
587.292	1292.12
587.502	1262.12
587.713	1256.12
587.923	1286.12
588.133	1238.12
588.343	1230.12
588.553	1248.12
588.762	1261.12
588.972	1241.12
589.182	1307.12
589.392	1288.12
589.602	1205.12
589.812	1234.12
590.022	1212.12
590.232	1210.12
590.441	1174.12
590.651	1221.12
590.861	1181.12
591.071	1194.12
591.281	1186.12
591.49	1184.12
591.7	1157.12
591.91	1156.12
592.119	1167.12
592.329	1215.12
592.539	1200.12
592.748	1170.12
592.958	1216.12
593.167	1173.12
593.377	1200.12
593.587	1225.12
593.796	1256.12
594.006	1187.12
594.215	1213.12
594.424	1212.12
594.634	1219.12
594.843	1204.12
595.053	1190.12
595.262	1129.12
595.472	1116.12
595.681	1102.12
595.89	1107.12
596.1	1050.12
596.309	1084.12
596.518	1065.12
596.727	1084.12
596.937	1042.12
597.146	1044.12
597.355	1047.12
597.564	1036.12
597.774	995.12
597.983	1010.12
598.192	984.12
598.401	987.12
598.61	1012.12
598.819	1006.12
599.028	1000.12
599.237	960.12
599.446	948.12
599.655	940.12
599.864	990.12
600.073	955.12
600.282	942.12
600.491	940.12
600.7	952.12
600.909	930.12
601.118	982.12
601.327	963.12
601.536	941.12
601.745	968.12
601.953	1082.12
602.162	1237.12
602.371	1114.12
602.58	1017.12
602.789	971.12
602.997	960.12
603.206	961.12
603.415	956.12
603.623	946.12
603.832	906.12
604.041	926.12
604.249	914.12
604.458	903.12
604.666	891.12
604.875	892.12
605.084	883.12
605.292	888.12
605.501	907.12
605.709	935.12
605.918	915.12
606.126	936.12
606.334	948.12
606.543	960.12
606.751	1054.12
606.96	1143.12
607.168	1268.12
607.376	1106.12
607.585	1008.12
607.793	938.12
608.001	933.12
608.21	903.12
608.418	887.12
608.626	878.12
608.834	894.12
609.043	869.12
609.251	866.12
609.459	846.12
609.667	857.12
609.875	863.12
610.083	867.12
610.291	858.12
610.499	843.12
610.707	828.12
610.916	824.12
611.124	836.12
611.332	829.12
611.54	817.12
611.748	844.12
611.955	834.12
612.163	823.12
612.371	828.12
612.579	802.12
612.787	794.12
612.995	797.12
613.203	807.12
613.411	824.12
613.618	817.12
613.826	826.12
614.034	816.12
614.242	795.12
614.449	791.12
614.657	784.12
614.865	825.12
615.072	820.12
615.28	790.12
615.488	791.12
615.695	813.12
615.903	800.12
616.111	783.12
616.318	790.12
616.526	786.12
616.733	799.12
616.941	794.12
617.148	781.12
617.356	783.12
617.563	757.12
617.771	777.12
617.978	754.12
618.185	773.12
618.393	753.12
618.6	769.12
618.807	749.12
619.015	794.12
619.222	762.12
619.429	757.12
619.637	745.12
619.844	768.12
620.051	722.12
620.258	706.12
620.466	712.12
620.673	703.12
620.88	723.12
621.087	692.12
621.294	685.12
621.501	690.12
621.708	705.12
621.915	706.12
622.122	717.12
622.329	729.12
622.536	704.12
622.743	692.12
622.95	701.12
623.157	692.12
623.364	685.12
623.571	713.12
623.778	688.12
623.985	695.12
624.192	696.12
624.399	665.12
624.606	668.12
624.812	666.12
625.019	676.12
625.226	666.12
625.433	666.12
625.639	673.12
625.846	653.12
626.053	663.12
626.259	651.12
626.466	620.12
626.673	620.12
626.879	630.12
627.086	634.12
627.293	654.12
627.499	645.12
627.706	633.12
627.912	641.12
628.119	634.12
628.325	641.12
628.532	636.12
628.738	626.12
628.945	628.12
629.151	608.12
629.357	621.12
629.564	630.12
629.77	605.12
629.976	629.12
630.183	619.12
630.389	601.12
630.595	609.12
630.802	622.12
631.008	608.12
631.214	613.12
631.42	598.12
631.627	593.12
631.833	609.12
632.039	612.12
632.245	590.12
632.451	584.12
632.657	600.12
632.863	592.12
633.069	593.12
633.275	593.12
633.481	589.12
633.688	589.12
633.893	593.12
634.099	593.12
634.305	581.12
634.511	593.12
634.717	594.12
634.923	616.12
635.129	704.12
635.335	796.12
635.541	715.12
635.747	661.12
635.952	626.12
636.158	611.12
636.364	618.12
636.57	581.12
636.775	603.12
636.981	591.12
637.187	598.12
637.392	577.12
637.598	611.12
637.804	588.12
638.009	583.12
638.215	597.12
638.421	578.12
638.626	590.12
638.832	638.12
639.037	579.12
639.243	610.12
639.448	599.12
639.654	592.12
639.859	617.12
640.065	626.12
640.27	638.12
640.475	613.12
640.681	626.12
640.886	642.12
641.091	639.12
641.297	640.12
641.502	644.12
641.707	637.12
641.913	676.12
642.118	685.12
642.323	700.12
642.528	684.12
642.733	713.12
642.939	739.12
643.144	764.12
643.349	765.12
643.554	817.12
643.759	819.12
643.964	893.12
644.169	935.12
644.374	970.12
644.579	1103.12
644.784	1196.12
644.989	1356.12
645.194	1590.12
645.399	1932.12
645.604	2090.12
645.809	1529.12
646.014	1178.12
646.219	990.12
646.423	862.12
646.628	796.12
646.833	746.12
647.038	701.12
647.243	665.12
647.447	620.12
647.652	642.12
647.857	580.12
648.062	603.12
648.266	573.12
648.471	590.12
648.676	589.12
648.88	570.12
649.085	529.12
649.289	570.12
649.494	540.12
649.698	513.12
649.903	510.12
650.107	505.12
650.312	496.12
650.516	480.12
650.721	499.12
650.925	475.12
651.13	452.12
651.334	464.12
651.539	441.12
651.743	436.12
651.947	440.12
652.152	445.12
652.356	435.12
652.56	455.12
652.764	509.12
652.969	476.12
653.173	454.12
653.377	441.12
653.581	395.12
653.785	393.12
653.99	378.12
654.194	378.12
654.398	371.12
654.602	370.12
654.806	370.12
655.01	370.12
655.214	373.12
655.418	354.12
655.622	364.12
655.826	358.12
656.03	371.12
656.234	395.12
656.438	385.12
656.642	408.12
656.846	404.12
657.049	369.12
657.253	345.12
657.457	320.12
657.661	321.12
657.865	287.12
658.068	276.12
658.272	263.12
658.476	258.12
658.68	244.12
658.883	231.12
659.087	210.12
659.291	188.12
659.494	194.12
659.698	204.12
659.901	174.12
660.105	188.12
660.309	181.12
660.512	161.12
660.716	171.12
660.919	148.12
661.123	140.12
661.326	149.12
661.53	138.12
661.733	136.12
661.936	121.12
662.14	135.12
662.343	126.12
662.546	113.12
662.75	90.12
662.953	102.12
663.156	78.12
663.36	97.12
663.563	102.12
663.766	101.12
663.969	96.12
664.173	93.12
664.376	82.12
664.579	97.12
664.782	92.12
664.985	78.12
665.188	81.12
665.391	89.12
665.594	75.12
665.797	80.12
666	98.12
666.203	83.12
666.406	85.12
666.609	83.12
666.812	93.12
667.015	74.12
667.218	103.12
667.421	87.12
667.624	81.12
667.827	89.12
668.03	76.12
668.232	85.12
668.435	92.12
668.638	95.12
668.841	92.12
669.043	90.12
669.246	67.12
669.449	88.12
669.651	84.12
669.854	77.12
670.057	72.12
670.259	87.12
670.462	80.12
670.665	81.12
670.867	96.12
671.07	82.12
671.272	94.12
671.475	91.12
671.677	96.12
671.88	81.12
672.082	83.12
672.284	98.12
672.487	82.12
672.689	78.12
672.892	84.12
