Data from SnStandardFlinnAPT0064_QswitchEnergy10_LIBS07252019.E.O._I.C._HRD10591_15-26-46-973.txt Node
Date: Thu Jul 25 15:26:46 EDT 2019
User: cochatt
Spectrometer: HR+D1059
Trigger mode: 1
Integration Time (sec): 1.000000E-1
Scans to average: 1
Electric dark correction enabled: true
Nonlinearity correction enabled: false
Boxcar width: 0
XAxis mode: Wavelengths
Number of Pixels in Spectrum: 2048
>>>>>Begin Spectral Data<<<<<
223.165	-18.38
223.4	-18.38
223.635	-18.38
223.869	-18.38
224.104	-13.38
224.338	-11.38
224.573	-25.38
224.808	-9.38
225.042	-0.38
225.277	-6.38
225.511	3.62
225.746	7.62
225.98	-3.38
226.215	19.62
226.449	8.62
226.683	16.62
226.918	34.62
227.152	15.62
227.387	45.62
227.621	24.62
227.856	43.62
228.09	45.62
228.324	45.62
228.559	55.62
228.793	53.62
229.027	65.62
229.262	65.62
229.496	68.62
229.73	75.62
229.964	74.62
230.199	60.62
230.433	80.62
230.667	79.62
230.901	89.62
231.136	80.62
231.37	73.62
231.604	84.62
231.838	93.62
232.072	100.62
232.306	116.62
232.541	95.62
232.775	74.62
233.009	76.62
233.243	88.62
233.477	96.62
233.711	92.62
233.945	104.62
234.179	86.62
234.413	84.62
234.647	81.62
234.881	90.62
235.115	80.62
235.349	82.62
235.583	114.62
235.817	127.62
236.051	127.62
236.285	95.62
236.519	108.62
236.753	82.62
236.987	82.62
237.221	75.62
237.455	74.62
237.689	78.62
237.922	77.62
238.156	77.62
238.39	79.62
238.624	85.62
238.858	75.62
239.091	73.62
239.325	80.62
239.559	67.62
239.793	91.62
240.027	90.62
240.26	88.62
240.494	84.62
240.728	89.62
240.961	86.62
241.195	98.62
241.429	91.62
241.662	81.62
241.896	84.62
242.13	99.62
242.363	111.62
242.597	166.62
242.83	133.62
243.064	133.62
243.298	160.62
243.531	158.62
243.765	93.62
243.998	90.62
244.232	66.62
244.465	76.62
244.699	73.62
244.932	71.62
245.166	63.62
245.399	92.62
245.633	74.62
245.866	88.62
246.099	80.62
246.333	87.62
246.566	77.62
246.8	87.62
247.033	76.62
247.266	89.62
247.5	74.62
247.733	72.62
247.966	85.62
248.2	90.62
248.433	99.62
248.666	122.62
248.899	112.62
249.133	101.62
249.366	93.62
249.599	107.62
249.832	109.62
250.066	135.62
250.299	88.62
250.532	90.62
250.765	77.62
250.998	83.62
251.231	65.62
251.465	76.62
251.698	81.62
251.931	68.62
252.164	79.62
252.397	78.62
252.63	93.62
252.863	91.62
253.096	98.62
253.329	86.62
253.562	84.62
253.795	96.62
254.028	76.62
254.261	97.62
254.494	91.62
254.727	109.62
254.96	133.62
255.193	134.62
255.426	104.62
255.659	88.62
255.892	78.62
256.124	86.62
256.357	72.62
256.59	77.62
256.823	98.62
257.056	112.62
257.289	143.62
257.521	175.62
257.754	111.62
257.987	85.62
258.22	78.62
258.452	78.62
258.685	79.62
258.918	74.62
259.151	94.62
259.383	88.62
259.616	132.62
259.849	140.62
260.081	107.62
260.314	85.62
260.547	80.62
260.779	89.62
261.012	87.62
261.244	74.62
261.477	87.62
261.71	81.62
261.942	81.62
262.175	83.62
262.407	73.62
262.64	83.62
262.872	73.62
263.105	75.62
263.337	85.62
263.57	84.62
263.802	90.62
264.035	94.62
264.267	72.62
264.499	83.62
264.732	88.62
264.964	89.62
265.197	82.62
265.429	84.62
265.661	94.62
265.894	86.62
266.126	120.62
266.358	145.62
266.591	128.62
266.823	100.62
267.055	87.62
267.287	79.62
267.52	80.62
267.752	86.62
267.984	78.62
268.216	64.62
268.448	81.62
268.681	88.62
268.913	93.62
269.145	86.62
269.377	82.62
269.609	76.62
269.841	92.62
270.073	106.62
270.306	119.62
270.538	184.62
270.77	316.62
271.002	361.62
271.234	201.62
271.466	124.62
271.698	99.62
271.93	89.62
272.162	80.62
272.394	79.62
272.626	68.62
272.858	77.62
273.09	78.62
273.322	83.62
273.553	79.62
273.785	90.62
274.017	79.62
274.249	96.62
274.481	76.62
274.713	68.62
274.945	98.62
275.176	76.62
275.408	86.62
275.64	89.62
275.872	87.62
276.104	98.62
276.335	96.62
276.567	88.62
276.799	83.62
277.031	93.62
277.262	96.62
277.494	89.62
277.726	125.62
277.957	160.62
278.189	233.62
278.421	200.62
278.652	201.62
278.884	184.62
279.115	147.62
279.347	104.62
279.579	85.62
279.81	91.62
280.042	96.62
280.273	98.62
280.505	103.62
280.736	108.62
280.968	116.62
281.199	156.62
281.431	219.62
281.662	256.62
281.894	159.62
282.125	116.62
282.356	110.62
282.588	105.62
282.819	110.62
283.051	121.62
283.282	137.62
283.513	175.62
283.745	295.62
283.976	541.62
284.207	751.62
284.439	576.62
284.67	264.62
284.901	260.62
285.132	334.62
285.364	365.62
285.595	239.62
285.826	167.62
286.057	243.62
286.288	412.62
286.52	575.62
286.751	465.62
286.982	183.62
287.213	114.62
287.444	120.62
287.675	99.62
287.906	91.62
288.138	82.62
288.369	104.62
288.6	92.62
288.831	98.62
289.062	109.62
289.293	89.62
289.524	84.62
289.755	99.62
289.986	80.62
290.217	111.62
290.448	101.62
290.679	95.62
290.91	110.62
291.141	161.62
291.371	227.62
291.602	273.62
291.833	194.62
292.064	101.62
292.295	102.62
292.526	100.62
292.757	88.62
292.987	80.62
293.218	76.62
293.449	93.62
293.68	91.62
293.91	88.62
294.141	94.62
294.372	94.62
294.603	99.62
294.833	90.62
295.064	94.62
295.295	80.62
295.525	83.62
295.756	91.62
295.987	97.62
296.217	91.62
296.448	83.62
296.679	93.62
296.909	83.62
297.14	92.62
297.37	92.62
297.601	79.62
297.831	104.62
298.062	96.62
298.292	99.62
298.523	95.62
298.753	111.62
298.984	84.62
299.214	93.62
299.445	94.62
299.675	117.62
299.905	122.62
300.136	131.62
300.366	168.62
300.597	260.62
300.827	423.62
301.057	667.62
301.288	610.62
301.518	272.62
301.748	143.62
301.979	133.62
302.209	133.62
302.439	154.62
302.669	164.62
302.9	264.62
303.13	471.62
303.36	836.62
303.59	1170.62
303.82	832.62
304.051	291.62
304.281	163.62
304.511	118.62
304.741	119.62
304.971	105.62
305.201	107.62
305.431	90.62
305.661	103.62
305.891	102.62
306.121	96.62
306.352	107.62
306.582	102.62
306.812	99.62
307.042	88.62
307.272	97.62
307.502	88.62
307.731	101.62
307.961	88.62
308.191	110.62
308.421	102.62
308.651	103.62
308.881	97.62
309.111	94.62
309.341	87.62
309.571	92.62
309.8	126.62
310.03	107.62
310.26	104.62
310.49	105.62
310.72	103.62
310.949	101.62
311.179	99.62
311.409	106.62
311.639	109.62
311.868	96.62
312.098	115.62
312.328	95.62
312.557	113.62
312.787	111.62
313.017	110.62
313.246	118.62
313.476	121.62
313.706	123.62
313.935	144.62
314.165	193.62
314.394	222.62
314.624	191.62
314.853	117.62
315.083	117.62
315.312	133.62
315.542	116.62
315.771	133.62
316.001	135.62
316.23	139.62
316.46	142.62
316.689	176.62
316.919	245.62
317.148	486.62
317.377	882.62
317.607	1445.62
317.836	1366.62
318.065	545.62
318.295	207.62
318.524	151.62
318.753	138.62
318.983	121.62
319.212	121.62
319.441	113.62
319.67	103.62
319.9	112.62
320.129	112.62
320.358	124.62
320.587	109.62
320.816	119.62
321.046	117.62
321.275	114.62
321.504	117.62
321.733	136.62
321.962	150.62
322.191	159.62
322.42	129.62
322.649	125.62
322.878	133.62
323.108	128.62
323.337	121.62
323.566	119.62
323.795	111.62
324.024	120.62
324.253	132.62
324.482	151.62
324.71	200.62
324.939	277.62
325.168	216.62
325.397	188.62
325.626	238.62
325.855	471.62
326.084	905.62
326.313	1547.62
326.542	1549.62
326.77	601.62
326.999	255.62
327.228	174.62
327.457	220.62
327.686	213.62
327.914	157.62
328.143	129.62
328.372	149.62
328.6	133.62
328.829	118.62
329.058	120.62
329.287	101.62
329.515	109.62
329.744	100.62
329.972	99.62
330.201	106.62
330.43	115.62
330.658	102.62
330.887	96.62
331.115	113.62
331.344	125.62
331.572	110.62
331.801	119.62
332.03	111.62
332.258	121.62
332.486	179.62
332.715	301.62
332.943	505.62
333.172	738.62
333.4	639.62
333.629	221.62
333.857	143.62
334.085	128.62
334.314	120.62
334.542	125.62
334.771	116.62
334.999	119.62
335.227	110.62
335.455	126.62
335.684	115.62
335.912	129.62
336.14	114.62
336.369	112.62
336.597	109.62
336.825	86.62
337.053	111.62
337.281	109.62
337.51	89.62
337.738	94.62
337.966	106.62
338.194	107.62
338.422	113.62
338.65	116.62
338.878	119.62
339.106	117.62
339.334	114.62
339.562	119.62
339.79	104.62
340.018	101.62
340.246	123.62
340.474	86.62
340.702	108.62
340.93	113.62
341.158	107.62
341.386	109.62
341.614	118.62
341.842	96.62
342.07	111.62
342.298	115.62
342.526	127.62
342.754	111.62
342.981	108.62
343.209	105.62
343.437	102.62
343.665	105.62
343.893	102.62
344.12	111.62
344.348	101.62
344.576	112.62
344.804	125.62
345.031	108.62
345.259	103.62
345.487	96.62
345.714	105.62
345.942	99.62
346.17	115.62
346.397	110.62
346.625	121.62
346.853	95.62
347.08	91.62
347.308	88.62
347.535	113.62
347.763	98.62
347.99	89.62
348.218	99.62
348.445	84.62
348.673	90.62
348.9	103.62
349.128	122.62
349.355	117.62
349.583	105.62
349.81	115.62
350.037	111.62
350.265	96.62
350.492	108.62
350.72	107.62
350.947	109.62
351.174	116.62
351.402	102.62
351.629	107.62
351.856	97.62
352.083	115.62
352.311	99.62
352.538	103.62
352.765	105.62
352.992	112.62
353.22	112.62
353.447	98.62
353.674	96.62
353.901	104.62
354.128	109.62
354.355	94.62
354.583	102.62
354.81	107.62
355.037	109.62
355.264	93.62
355.491	109.62
355.718	92.62
355.945	93.62
356.172	110.62
356.399	102.62
356.626	89.62
356.853	97.62
357.08	85.62
357.307	101.62
357.534	109.62
357.761	113.62
357.988	117.62
358.215	99.62
358.441	93.62
358.668	114.62
358.895	113.62
359.122	121.62
359.349	110.62
359.576	115.62
359.802	111.62
360.029	103.62
360.256	98.62
360.483	113.62
360.709	102.62
360.936	83.62
361.163	100.62
361.39	89.62
361.616	104.62
361.843	101.62
362.07	104.62
362.296	107.62
362.523	99.62
362.749	110.62
362.976	101.62
363.203	107.62
363.429	117.62
363.656	103.62
363.882	93.62
364.109	104.62
364.335	100.62
364.562	109.62
364.788	101.62
365.015	114.62
365.241	122.62
365.468	177.62
365.694	257.62
365.92	223.62
366.147	120.62
366.373	107.62
366.599	94.62
366.826	93.62
367.052	83.62
367.278	82.62
367.505	95.62
367.731	97.62
367.957	95.62
368.184	121.62
368.41	105.62
368.636	122.62
368.862	117.62
369.089	98.62
369.315	96.62
369.541	109.62
369.767	90.62
369.993	105.62
370.219	107.62
370.445	117.62
370.672	112.62
370.898	102.62
371.124	93.62
371.35	91.62
371.576	113.62
371.802	105.62
372.028	96.62
372.254	103.62
372.48	107.62
372.706	109.62
372.932	114.62
373.158	110.62
373.384	109.62
373.61	120.62
373.835	120.62
374.061	112.62
374.287	110.62
374.513	95.62
374.739	111.62
374.965	99.62
375.191	114.62
375.416	96.62
375.642	91.62
375.868	116.62
376.094	98.62
376.319	110.62
376.545	112.62
376.771	101.62
376.997	90.62
377.222	108.62
377.448	108.62
377.674	100.62
377.899	103.62
378.125	103.62
378.35	104.62
378.576	106.62
378.802	117.62
379.027	109.62
379.253	130.62
379.478	171.62
379.704	307.62
379.929	752.62
380.155	1549.62
380.38	1598.62
380.606	506.62
380.831	193.62
381.057	142.62
381.282	115.62
381.507	111.62
381.733	104.62
381.958	111.62
382.184	99.62
382.409	104.62
382.634	96.62
382.86	97.62
383.085	102.62
383.31	103.62
383.535	111.62
383.761	108.62
383.986	98.62
384.211	94.62
384.436	92.62
384.662	90.62
384.887	116.62
385.112	107.62
385.337	97.62
385.562	97.62
385.787	93.62
386.013	108.62
386.238	95.62
386.463	104.62
386.688	106.62
386.913	108.62
387.138	93.62
387.363	90.62
387.588	104.62
387.813	104.62
388.038	112.62
388.263	100.62
388.488	95.62
388.713	108.62
388.938	83.62
389.163	92.62
389.387	104.62
389.612	114.62
389.837	85.62
390.062	101.62
390.287	104.62
390.512	91.62
390.736	92.62
390.961	103.62
391.186	104.62
391.411	91.62
391.636	88.62
391.86	75.62
392.085	88.62
392.31	99.62
392.534	78.62
392.759	107.62
392.984	95.62
393.208	85.62
393.433	119.62
393.658	127.62
393.882	96.62
394.107	99.62
394.331	99.62
394.556	95.62
394.78	84.62
395.005	109.62
395.229	85.62
395.454	92.62
395.678	106.62
395.903	101.62
396.127	101.62
396.352	97.62
396.576	92.62
396.801	122.62
397.025	124.62
397.249	110.62
397.474	109.62
397.698	103.62
397.922	80.62
398.147	92.62
398.371	100.62
398.595	89.62
398.82	88.62
399.044	95.62
399.268	88.62
399.492	114.62
399.717	103.62
399.941	89.62
400.165	104.62
400.389	89.62
400.613	92.62
400.837	77.62
401.062	104.62
401.286	99.62
401.51	96.62
401.734	97.62
401.958	81.62
402.182	99.62
402.406	97.62
402.63	101.62
402.854	95.62
403.078	80.62
403.302	79.62
403.526	110.62
403.75	98.62
403.974	85.62
404.198	96.62
404.422	93.62
404.645	92.62
404.869	102.62
405.093	97.62
405.317	100.62
405.541	103.62
405.765	147.62
405.988	154.62
406.212	102.62
406.436	81.62
406.66	111.62
406.883	82.62
407.107	94.62
407.331	99.62
407.555	87.62
407.778	103.62
408.002	93.62
408.226	99.62
408.449	102.62
408.673	93.62
408.896	89.62
409.12	93.62
409.344	93.62
409.567	98.62
409.791	96.62
410.014	105.62
410.238	92.62
410.461	92.62
410.685	85.62
410.908	85.62
411.132	92.62
411.355	92.62
411.578	96.62
411.802	84.62
412.025	100.62
412.249	95.62
412.472	89.62
412.695	91.62
412.919	105.62
413.142	89.62
413.365	92.62
413.589	88.62
413.812	90.62
414.035	100.62
414.258	97.62
414.482	88.62
414.705	109.62
414.928	102.62
415.151	97.62
415.374	87.62
415.597	110.62
415.821	80.62
416.044	76.62
416.267	95.62
416.49	99.62
416.713	102.62
416.936	99.62
417.159	84.62
417.382	91.62
417.605	101.62
417.828	83.62
418.051	89.62
418.274	99.62
418.497	88.62
418.72	112.62
418.943	116.62
419.166	101.62
419.389	98.62
419.611	98.62
419.834	91.62
420.057	88.62
420.28	97.62
420.503	102.62
420.726	96.62
420.948	72.62
421.171	102.62
421.394	88.62
421.617	100.62
421.839	93.62
422.062	92.62
422.285	100.62
422.507	108.62
422.73	124.62
422.953	119.62
423.175	104.62
423.398	96.62
423.621	69.62
423.843	85.62
424.066	85.62
424.288	90.62
424.511	104.62
424.733	97.62
424.956	97.62
425.178	97.62
425.401	99.62
425.623	100.62
425.846	79.62
426.068	86.62
426.291	94.62
426.513	88.62
426.735	87.62
426.958	81.62
427.18	83.62
427.402	84.62
427.625	85.62
427.847	102.62
428.069	90.62
428.292	93.62
428.514	87.62
428.736	99.62
428.958	93.62
429.181	104.62
429.403	103.62
429.625	91.62
429.847	101.62
430.069	109.62
430.292	98.62
430.514	111.62
430.736	96.62
430.958	97.62
431.18	80.62
431.402	76.62
431.624	85.62
431.846	87.62
432.068	86.62
432.29	93.62
432.512	95.62
432.734	97.62
432.956	98.62
433.178	104.62
433.4	92.62
433.622	81.62
433.844	102.62
434.066	92.62
434.287	94.62
434.509	97.62
434.731	103.62
434.953	91.62
435.175	92.62
435.397	92.62
435.618	93.62
435.84	87.62
436.062	96.62
436.284	82.62
436.505	102.62
436.727	94.62
436.949	85.62
437.17	80.62
437.392	86.62
437.614	88.62
437.835	97.62
438.057	88.62
438.278	84.62
438.5	97.62
438.721	99.62
438.943	97.62
439.165	111.62
439.386	119.62
439.608	99.62
439.829	95.62
440.05	105.62
440.272	134.62
440.493	91.62
440.715	95.62
440.936	100.62
441.158	102.62
441.379	93.62
441.6	92.62
441.822	107.62
442.043	108.62
442.264	131.62
442.486	110.62
442.707	105.62
442.928	94.62
443.149	97.62
443.371	104.62
443.592	81.62
443.813	92.62
444.034	92.62
444.255	101.62
444.476	91.62
444.698	81.62
444.919	86.62
445.14	199.62
445.361	151.62
445.582	104.62
445.803	94.62
446.024	101.62
446.245	115.62
446.466	107.62
446.687	97.62
446.908	91.62
447.129	101.62
447.35	82.62
447.571	103.62
447.792	99.62
448.013	102.62
448.234	109.62
448.455	92.62
448.675	97.62
448.896	101.62
449.117	106.62
449.338	135.62
449.559	150.62
449.779	112.62
450	84.62
450.221	113.62
450.442	118.62
450.662	121.62
450.883	111.62
451.104	94.62
451.324	133.62
451.545	113.62
451.766	120.62
451.986	153.62
452.207	202.62
452.428	518.62
452.648	1339.62
452.869	729.62
453.089	189.62
453.31	107.62
453.53	118.62
453.751	143.62
453.971	152.62
454.192	154.62
454.412	100.62
454.633	107.62
454.853	91.62
455.073	107.62
455.294	83.62
455.514	98.62
455.734	104.62
455.955	89.62
456.175	100.62
456.395	83.62
456.616	84.62
456.836	105.62
457.056	91.62
457.276	99.62
457.497	121.62
457.717	110.62
457.937	112.62
458.157	105.62
458.377	77.62
458.598	86.62
458.818	82.62
459.038	91.62
459.258	81.62
459.478	96.62
459.698	88.62
459.918	94.62
460.138	103.62
460.358	78.62
460.578	89.62
460.798	83.62
461.018	96.62
461.238	84.62
461.458	80.62
461.678	76.62
461.898	79.62
462.118	84.62
462.338	95.62
462.558	104.62
462.777	86.62
462.997	86.62
463.217	112.62
463.437	126.62
463.657	186.62
463.876	171.62
464.096	121.62
464.316	104.62
464.536	85.62
464.755	94.62
464.975	99.62
465.195	101.62
465.414	88.62
465.634	84.62
465.854	80.62
466.073	92.62
466.293	92.62
466.512	88.62
466.732	95.62
466.951	104.62
467.171	146.62
467.391	124.62
467.61	97.62
467.829	87.62
468.049	92.62
468.268	103.62
468.488	95.62
468.707	98.62
468.927	77.62
469.146	99.62
469.365	100.62
469.585	98.62
469.804	96.62
470.023	96.62
470.243	94.62
470.462	115.62
470.681	108.62
470.901	127.62
471.12	185.62
471.339	197.62
471.558	127.62
471.777	112.62
471.997	98.62
472.216	102.62
472.435	102.62
472.654	96.62
472.873	102.62
473.092	92.62
473.311	101.62
473.53	95.62
473.749	107.62
473.968	100.62
474.187	106.62
474.406	72.62
474.625	83.62
474.844	90.62
475.063	93.62
475.282	106.62
475.501	85.62
475.72	77.62
475.939	90.62
476.158	89.62
476.377	108.62
476.596	95.62
476.814	89.62
477.033	92.62
477.252	109.62
477.471	87.62
477.69	90.62
477.908	99.62
478.127	93.62
478.346	80.62
478.564	110.62
478.783	79.62
479.002	103.62
479.22	94.62
479.439	96.62
479.658	80.62
479.876	90.62
480.095	111.62
480.313	81.62
480.532	84.62
480.751	93.62
480.969	95.62
481.188	88.62
481.406	87.62
481.624	105.62
481.843	111.62
482.061	117.62
482.28	95.62
482.498	94.62
482.717	95.62
482.935	99.62
483.153	99.62
483.372	98.62
483.59	91.62
483.808	115.62
484.027	97.62
484.245	121.62
484.463	162.62
484.681	235.62
484.9	143.62
485.118	121.62
485.336	108.62
485.554	100.62
485.772	117.62
485.99	197.62
486.209	225.62
486.427	137.62
486.645	115.62
486.863	88.62
487.081	95.62
487.299	100.62
487.517	113.62
487.735	84.62
487.953	104.62
488.171	100.62
488.389	91.62
488.607	99.62
488.825	82.62
489.043	89.62
489.261	82.62
489.479	107.62
489.696	91.62
489.914	100.62
490.132	88.62
490.35	89.62
490.568	92.62
490.786	106.62
491.003	103.62
491.221	103.62
491.439	116.62
491.657	95.62
491.874	100.62
492.092	98.62
492.31	107.62
492.527	111.62
492.745	95.62
492.963	117.62
493.18	113.62
493.398	104.62
493.615	107.62
493.833	111.62
494.05	107.62
494.268	88.62
494.485	100.62
494.703	97.62
494.92	101.62
495.138	96.62
495.355	102.62
495.573	95.62
495.79	97.62
496.008	110.62
496.225	109.62
496.442	113.62
496.66	114.62
496.877	148.62
497.094	145.62
497.312	98.62
497.529	92.62
497.746	102.62
497.963	98.62
498.181	102.62
498.398	94.62
498.615	94.62
498.832	93.62
499.049	101.62
499.267	127.62
499.484	153.62
499.701	115.62
499.918	83.62
500.135	92.62
500.352	84.62
500.569	76.62
500.786	89.62
501.003	93.62
501.22	93.62
501.437	107.62
501.654	98.62
501.871	92.62
502.088	98.62
502.305	91.62
502.522	98.62
502.739	91.62
502.956	99.62
503.172	111.62
503.389	95.62
503.606	96.62
503.823	88.62
504.04	103.62
504.256	97.62
504.473	92.62
504.69	103.62
504.907	109.62
505.123	117.62
505.34	102.62
505.557	94.62
505.773	86.62
505.99	95.62
506.207	98.62
506.423	102.62
506.64	115.62
506.856	113.62
507.073	91.62
507.289	88.62
507.506	104.62
507.722	109.62
507.939	97.62
508.155	91.62
508.372	108.62
508.588	79.62
508.805	91.62
509.021	91.62
509.238	101.62
509.454	148.62
509.67	150.62
509.887	115.62
510.103	98.62
510.319	100.62
510.536	100.62
510.752	101.62
510.968	89.62
511.184	84.62
511.401	84.62
511.617	103.62
511.833	98.62
512.049	95.62
512.265	82.62
512.481	88.62
512.698	99.62
512.914	80.62
513.13	83.62
513.346	98.62
513.562	101.62
513.778	103.62
513.994	90.62
514.21	108.62
514.426	135.62
514.642	185.62
514.858	125.62
515.074	91.62
515.29	86.62
515.506	101.62
515.721	103.62
515.937	85.62
516.153	97.62
516.369	101.62
516.585	94.62
516.801	88.62
517.016	89.62
517.232	103.62
517.448	91.62
517.664	93.62
517.879	107.62
518.095	99.62
518.311	95.62
518.527	100.62
518.742	104.62
518.958	103.62
519.173	147.62
519.389	112.62
519.605	93.62
519.82	93.62
520.036	96.62
520.251	91.62
520.467	96.62
520.682	113.62
520.898	91.62
521.113	89.62
521.329	82.62
521.544	91.62
521.76	102.62
521.975	120.62
522.19	97.62
522.406	95.62
522.621	83.62
522.836	91.62
523.052	95.62
523.267	92.62
523.482	102.62
523.698	96.62
523.913	97.62
524.128	80.62
524.343	79.62
524.559	100.62
524.774	116.62
524.989	104.62
525.204	89.62
525.419	89.62
525.634	85.62
525.849	99.62
526.064	94.62
526.28	81.62
526.495	101.62
526.71	96.62
526.925	89.62
527.14	104.62
527.355	86.62
527.57	98.62
527.785	95.62
527.999	96.62
528.214	99.62
528.429	90.62
528.644	84.62
528.859	100.62
529.074	94.62
529.289	97.62
529.503	93.62
529.718	80.62
529.933	93.62
530.148	89.62
530.363	88.62
530.577	87.62
530.792	98.62
531.007	96.62
531.221	91.62
531.436	102.62
531.651	103.62
531.865	99.62
532.08	94.62
532.295	109.62
532.509	143.62
532.724	108.62
532.938	101.62
533.153	89.62
533.367	96.62
533.582	112.62
533.796	93.62
534.011	98.62
534.225	89.62
534.44	95.62
534.654	86.62
534.868	91.62
535.083	85.62
535.297	89.62
535.511	117.62
535.726	107.62
535.94	91.62
536.154	95.62
536.369	104.62
536.583	80.62
536.797	96.62
537.011	98.62
537.225	96.62
537.44	112.62
537.654	90.62
537.868	93.62
538.082	92.62
538.296	81.62
538.51	95.62
538.724	89.62
538.938	93.62
539.153	104.62
539.367	97.62
539.581	105.62
539.795	86.62
540.009	96.62
540.222	96.62
540.436	98.62
540.65	104.62
540.864	97.62
541.078	109.62
541.292	127.62
541.506	209.62
541.72	184.62
541.934	119.62
542.147	102.62
542.361	88.62
542.575	91.62
542.789	98.62
543.002	110.62
543.216	101.62
543.43	97.62
543.644	98.62
543.857	93.62
544.071	94.62
544.285	94.62
544.498	97.62
544.712	103.62
544.925	108.62
545.139	93.62
545.352	91.62
545.566	93.62
545.779	97.62
545.993	100.62
546.206	92.62
546.42	101.62
546.633	93.62
546.847	113.62
547.06	87.62
547.274	102.62
547.487	91.62
547.7	89.62
547.914	97.62
548.127	109.62
548.34	97.62
548.554	109.62
548.767	109.62
548.98	106.62
549.193	93.62
549.407	104.62
549.62	102.62
549.833	109.62
550.046	97.62
550.259	94.62
550.473	95.62
550.686	111.62
550.899	100.62
551.112	101.62
551.325	86.62
551.538	99.62
551.751	92.62
551.964	96.62
552.177	94.62
552.39	92.62
552.603	92.62
552.816	100.62
553.029	101.62
553.242	103.62
553.455	100.62
553.667	95.62
553.88	97.62
554.093	96.62
554.306	92.62
554.519	101.62
554.732	101.62
554.944	101.62
555.157	89.62
555.37	105.62
555.583	102.62
555.795	115.62
556.008	115.62
556.221	148.62
556.433	125.62
556.646	105.62
556.859	101.62
557.071	113.62
557.284	119.62
557.496	110.62
557.709	109.62
557.921	116.62
558.134	109.62
558.346	100.62
558.559	99.62
558.771	97.62
558.984	100.62
559.196	103.62
559.409	110.62
559.621	92.62
559.833	99.62
560.046	105.62
560.258	86.62
560.47	99.62
560.683	104.62
560.895	81.62
561.107	83.62
561.32	98.62
561.532	87.62
561.744	103.62
561.956	101.62
562.168	107.62
562.381	97.62
562.593	114.62
562.805	142.62
563.017	149.62
563.229	267.62
563.441	569.62
563.653	202.62
563.865	115.62
564.077	89.62
564.289	81.62
564.501	107.62
564.713	86.62
564.925	78.62
565.137	94.62
565.349	102.62
565.561	93.62
565.773	107.62
565.985	94.62
566.197	86.62
566.408	101.62
566.62	95.62
566.832	100.62
567.044	92.62
567.255	97.62
567.467	110.62
567.679	90.62
567.891	115.62
568.102	168.62
568.314	224.62
568.526	145.62
568.737	112.62
568.949	87.62
569.161	98.62
569.372	88.62
569.584	84.62
569.795	93.62
570.007	104.62
570.218	137.62
570.43	160.62
570.641	121.62
570.853	94.62
571.064	119.62
571.276	96.62
571.487	96.62
571.698	92.62
571.91	99.62
572.121	87.62
572.333	91.62
572.544	108.62
572.755	133.62
572.966	212.62
573.178	132.62
573.389	93.62
573.6	87.62
573.811	94.62
574.023	102.62
574.234	89.62
574.445	100.62
574.656	90.62
574.867	93.62
575.078	94.62
575.289	94.62
575.501	100.62
575.712	97.62
575.923	84.62
576.134	78.62
576.345	100.62
576.556	98.62
576.767	87.62
576.978	99.62
577.188	88.62
577.399	81.62
577.61	90.62
577.821	75.62
578.032	92.62
578.243	80.62
578.454	95.62
578.665	103.62
578.875	93.62
579.086	87.62
579.297	97.62
579.508	88.62
579.718	83.62
579.929	92.62
580.14	103.62
580.35	92.62
580.561	78.62
580.772	84.62
580.982	94.62
581.193	93.62
581.403	97.62
581.614	80.62
581.825	96.62
582.035	99.62
582.246	93.62
582.456	81.62
582.667	86.62
582.877	103.62
583.087	114.62
583.298	85.62
583.508	99.62
583.719	84.62
583.929	89.62
584.139	96.62
584.35	98.62
584.56	89.62
584.77	77.62
584.981	72.62
585.191	86.62
585.401	97.62
585.611	93.62
585.821	89.62
586.032	79.62
586.242	75.62
586.452	110.62
586.662	90.62
586.872	88.62
587.082	81.62
587.292	86.62
587.502	77.62
587.713	88.62
587.923	82.62
588.133	103.62
588.343	92.62
588.553	82.62
588.762	90.62
588.972	88.62
589.182	98.62
589.392	99.62
589.602	104.62
589.812	96.62
590.022	99.62
590.232	96.62
590.441	84.62
590.651	89.62
590.861	84.62
591.071	91.62
591.281	91.62
591.49	86.62
591.7	93.62
591.91	86.62
592.119	78.62
592.329	88.62
592.539	83.62
592.748	84.62
592.958	104.62
593.167	94.62
593.377	86.62
593.587	86.62
593.796	96.62
594.006	93.62
594.215	88.62
594.424	94.62
594.634	82.62
594.843	86.62
595.053	79.62
595.262	88.62
595.472	90.62
595.681	87.62
595.89	86.62
596.1	89.62
596.309	101.62
596.518	84.62
596.727	104.62
596.937	85.62
597.146	97.62
597.355	81.62
597.564	83.62
597.774	75.62
597.983	89.62
598.192	95.62
598.401	92.62
598.61	81.62
598.819	84.62
599.028	95.62
599.237	100.62
599.446	85.62
599.655	77.62
599.864	76.62
600.073	83.62
600.282	69.62
600.491	87.62
600.7	97.62
600.909	101.62
601.118	85.62
601.327	103.62
601.536	95.62
601.745	79.62
601.953	118.62
602.162	143.62
602.371	103.62
602.58	85.62
602.789	86.62
602.997	94.62
603.206	80.62
603.415	82.62
603.623	98.62
603.832	97.62
604.041	103.62
604.249	97.62
604.458	96.62
604.666	83.62
604.875	89.62
605.084	82.62
605.292	85.62
605.501	94.62
605.709	94.62
605.918	87.62
606.126	96.62
606.334	85.62
606.543	89.62
606.751	128.62
606.96	163.62
607.168	157.62
607.376	117.62
607.585	106.62
607.793	107.62
608.001	95.62
608.21	91.62
608.418	99.62
608.626	76.62
608.834	90.62
609.043	93.62
609.251	77.62
609.459	86.62
609.667	94.62
609.875	89.62
610.083	92.62
610.291	97.62
610.499	89.62
610.707	95.62
610.916	83.62
611.124	81.62
611.332	81.62
611.54	97.62
611.748	82.62
611.955	85.62
612.163	92.62
612.371	86.62
612.579	75.62
612.787	83.62
612.995	87.62
613.203	92.62
613.411	93.62
613.618	89.62
613.826	93.62
614.034	86.62
614.242	95.62
614.449	88.62
614.657	99.62
614.865	88.62
615.072	96.62
615.28	102.62
615.488	106.62
615.695	114.62
615.903	104.62
616.111	97.62
616.318	99.62
616.526	104.62
616.733	93.62
616.941	94.62
617.148	102.62
617.356	97.62
617.563	96.62
617.771	84.62
617.978	94.62
618.185	79.62
618.393	87.62
618.6	80.62
618.807	82.62
619.015	89.62
619.222	95.62
619.429	88.62
619.637	93.62
619.844	63.62
620.051	71.62
620.258	88.62
620.466	75.62
620.673	102.62
620.88	89.62
621.087	101.62
621.294	92.62
621.501	88.62
621.708	87.62
621.915	95.62
622.122	98.62
622.329	94.62
622.536	68.62
622.743	77.62
622.95	88.62
623.157	90.62
623.364	73.62
623.571	85.62
623.778	79.62
623.985	98.62
624.192	89.62
624.399	88.62
624.606	88.62
624.812	80.62
625.019	86.62
625.226	86.62
625.433	92.62
625.639	83.62
625.846	82.62
626.053	91.62
626.259	77.62
626.466	104.62
626.673	85.62
626.879	88.62
627.086	77.62
627.293	91.62
627.499	69.62
627.706	89.62
627.912	79.62
628.119	79.62
628.325	97.62
628.532	88.62
628.738	89.62
628.945	85.62
629.151	91.62
629.357	75.62
629.564	87.62
629.77	100.62
629.976	80.62
630.183	77.62
630.389	84.62
630.595	85.62
630.802	86.62
631.008	89.62
631.214	78.62
631.42	104.62
631.627	86.62
631.833	102.62
632.039	96.62
632.245	90.62
632.451	88.62
632.657	80.62
632.863	84.62
633.069	78.62
633.275	82.62
633.481	96.62
633.688	87.62
633.893	91.62
634.099	79.62
634.305	75.62
634.511	91.62
634.717	80.62
634.923	69.62
635.129	114.62
635.335	119.62
635.541	113.62
635.747	102.62
635.952	95.62
636.158	84.62
636.364	71.62
636.57	84.62
636.775	90.62
636.981	95.62
637.187	84.62
637.392	78.62
637.598	83.62
637.804	83.62
638.009	77.62
638.215	75.62
638.421	81.62
638.626	76.62
638.832	81.62
639.037	82.62
639.243	90.62
639.448	88.62
639.654	85.62
639.859	79.62
640.065	78.62
640.27	82.62
640.475	82.62
640.681	86.62
640.886	79.62
641.091	80.62
641.297	73.62
641.502	73.62
641.707	76.62
641.913	73.62
642.118	75.62
642.323	91.62
642.528	87.62
642.733	90.62
642.939	97.62
643.144	79.62
643.349	78.62
643.554	85.62
643.759	94.62
643.964	95.62
644.169	66.62
644.374	81.62
644.579	100.62
644.784	96.62
644.989	92.62
645.194	86.62
645.399	91.62
645.604	87.62
645.809	88.62
646.014	76.62
646.219	82.62
646.423	102.62
646.628	93.62
646.833	80.62
647.038	76.62
647.243	74.62
647.447	81.62
647.652	84.62
647.857	79.62
648.062	78.62
648.266	79.62
648.471	82.62
648.676	87.62
648.88	87.62
649.085	91.62
649.289	83.62
649.494	83.62
649.698	89.62
649.903	86.62
650.107	61.62
650.312	86.62
650.516	65.62
650.721	90.62
650.925	78.62
651.13	78.62
651.334	83.62
651.539	73.62
651.743	79.62
651.947	93.62
652.152	87.62
652.356	84.62
652.56	96.62
652.764	85.62
652.969	92.62
653.173	68.62
653.377	92.62
653.581	79.62
653.785	87.62
653.99	81.62
654.194	73.62
654.398	77.62
654.602	84.62
654.806	84.62
655.01	72.62
655.214	77.62
655.418	92.62
655.622	81.62
655.826	92.62
656.03	77.62
656.234	77.62
656.438	73.62
656.642	84.62
656.846	76.62
657.049	78.62
657.253	76.62
657.457	97.62
657.661	72.62
657.865	96.62
658.068	77.62
658.272	70.62
658.476	67.62
658.68	78.62
658.883	73.62
659.087	78.62
659.291	84.62
659.494	77.62
659.698	86.62
659.901	71.62
660.105	85.62
660.309	81.62
660.512	69.62
660.716	96.62
660.919	86.62
661.123	67.62
661.326	78.62
661.53	73.62
661.733	85.62
661.936	83.62
662.14	90.62
662.343	73.62
662.546	83.62
662.75	91.62
662.953	88.62
663.156	89.62
663.36	81.62
663.563	80.62
663.766	81.62
663.969	89.62
664.173	63.62
664.376	87.62
664.579	74.62
664.782	62.62
664.985	76.62
665.188	79.62
665.391	75.62
665.594	73.62
665.797	91.62
666	69.62
666.203	92.62
666.406	80.62
666.609	90.62
666.812	84.62
667.015	80.62
667.218	81.62
667.421	78.62
667.624	84.62
667.827	86.62
668.03	68.62
668.232	76.62
668.435	68.62
668.638	67.62
668.841	72.62
669.043	84.62
669.246	76.62
669.449	82.62
669.651	85.62
669.854	74.62
670.057	90.62
670.259	69.62
670.462	81.62
670.665	83.62
670.867	92.62
671.07	80.62
671.272	72.62
671.475	72.62
671.677	74.62
671.88	83.62
672.082	80.62
672.284	88.62
672.487	89.62
672.689	77.62
672.892	88.62
