Data from WStandard_LampEnergy5.5LIBS07252019.E.O._I.C._HRD10591_16-07-17-919.txt Node
Date: Thu Jul 25 16:07:17 EDT 2019
User: cochatt
Spectrometer: HR+D1059
Trigger mode: 1
Integration Time (sec): 1.000000E-1
Scans to average: 1
Electric dark correction enabled: true
Nonlinearity correction enabled: false
Boxcar width: 0
XAxis mode: Wavelengths
Number of Pixels in Spectrum: 2048
>>>>>Begin Spectral Data<<<<<
223.165	-17.56
223.4	-17.56
223.635	-17.56
223.869	-12.56
224.104	-12.56
224.338	-16.56
224.573	-11.56
224.808	-23.56
225.042	-9.56
225.277	-0.56
225.511	12.44
225.746	2.44
225.98	1.44
226.215	17.44
226.449	17.44
226.683	6.44
226.918	19.44
227.152	27.44
227.387	42.44
227.621	42.44
227.856	55.44
228.09	43.44
228.324	59.44
228.559	61.44
228.793	150.44
229.027	376.44
229.262	390.44
229.496	392.44
229.73	424.44
229.964	469.44
230.199	474.44
230.433	490.44
230.667	529.44
230.901	568.44
231.136	509.44
231.37	481.44
231.604	486.44
231.838	516.44
232.072	516.44
232.306	467.44
232.541	489.44
232.775	571.44
233.009	637.44
233.243	588.44
233.477	569.44
233.711	616.44
233.945	629.44
234.179	560.44
234.413	594.44
234.647	680.44
234.881	638.44
235.115	564.44
235.349	582.44
235.583	603.44
235.817	574.44
236.051	540.44
236.285	548.44
236.519	611.44
236.753	706.44
236.987	710.44
237.221	696.44
237.455	776.44
237.689	736.44
237.922	716.44
238.156	682.44
238.39	690.44
238.624	707.44
238.858	762.44
239.091	825.44
239.325	865.44
239.559	994.44
239.793	1037.44
240.027	1096.44
240.26	1111.44
240.494	805.44
240.728	752.44
240.961	757.44
241.195	757.44
241.429	851.44
241.662	881.44
241.896	816.44
242.13	811.44
242.363	874.44
242.597	972.44
242.83	906.44
243.064	937.44
243.298	1022.44
243.531	1016.44
243.765	982.44
243.998	995.44
244.232	849.44
244.465	810.44
244.699	851.44
244.932	985.44
245.166	1098.44
245.399	1046.44
245.633	938.44
245.866	944.44
246.099	994.44
246.333	1011.44
246.566	1000.44
246.8	1126.44
247.033	1250.44
247.266	1195.44
247.5	1099.44
247.733	1101.44
247.966	1193.44
248.2	1302.44
248.433	1256.44
248.666	1240.44
248.899	1385.44
249.133	1617.44
249.366	1833.44
249.599	1500.44
249.832	1357.44
250.066	1347.44
250.299	1379.44
250.532	1280.44
250.765	1140.44
250.998	1195.44
251.231	1262.44
251.465	1342.44
251.698	1216.44
251.931	1231.44
252.164	1282.44
252.397	1358.44
252.63	1299.44
252.863	1186.44
253.096	1157.44
253.329	1209.44
253.562	1244.44
253.795	1376.44
254.028	1312.44
254.261	1263.44
254.494	1229.44
254.727	1158.44
254.96	1212.44
255.193	1323.44
255.426	1520.44
255.659	1714.44
255.892	1831.44
256.124	1454.44
256.357	1401.44
256.59	1518.44
256.823	1526.44
257.056	1502.44
257.289	1783.44
257.521	2024.44
257.754	1837.44
257.987	1712.44
258.22	1925.44
258.452	1836.44
258.685	1481.44
258.918	1438.44
259.151	1474.44
259.383	1391.44
259.616	1229.44
259.849	1294.44
260.081	1460.44
260.314	1680.44
260.547	1802.44
260.779	1830.44
261.012	1727.44
261.244	1509.44
261.477	1430.44
261.71	1487.44
261.942	1509.44
262.175	1458.44
262.407	1540.44
262.64	1426.44
262.872	1355.44
263.105	1301.44
263.337	1363.44
263.57	1377.44
263.802	1359.44
264.035	1291.44
264.267	1200.44
264.499	1184.44
264.732	1295.44
264.964	1353.44
265.197	1417.44
265.429	1470.44
265.661	1659.44
265.894	1826.44
266.126	1906.44
266.358	1657.44
266.591	1740.44
266.823	1921.44
267.055	1697.44
267.287	1716.44
267.52	1673.44
267.752	1617.44
267.984	1629.44
268.216	1703.44
268.448	1765.44
268.681	1697.44
268.913	1601.44
269.145	1495.44
269.377	1459.44
269.609	1607.44
269.841	1800.44
270.073	2162.44
270.306	2384.44
270.538	2569.44
270.77	2163.44
271.002	1817.44
271.234	1761.44
271.466	1721.44
271.698	1955.44
271.93	2340.44
272.162	2354.44
272.394	2077.44
272.626	2026.44
272.858	1764.44
273.09	1535.44
273.322	1495.44
273.553	1424.44
273.785	1459.44
274.017	1492.44
274.249	1660.44
274.481	1676.44
274.713	1496.44
274.945	1476.44
275.176	1509.44
275.408	1467.44
275.64	1457.44
275.872	1447.44
276.104	1538.44
276.335	1731.44
276.567	2014.44
276.799	2024.44
277.031	1799.44
277.262	1655.44
277.494	1751.44
277.726	1938.44
277.957	1954.44
278.189	1775.44
278.421	1618.44
278.652	1558.44
278.884	1548.44
279.115	1538.44
279.347	1578.44
279.579	1528.44
279.81	1523.44
280.042	1708.44
280.273	1868.44
280.505	1893.44
280.736	1922.44
280.968	1832.44
281.199	1573.44
281.431	1494.44
281.662	1526.44
281.894	1505.44
282.125	1551.44
282.356	1626.44
282.588	1644.44
282.819	1582.44
283.051	1728.44
283.282	1862.44
283.513	1843.44
283.745	1609.44
283.976	1462.44
284.207	1492.44
284.439	1566.44
284.67	1594.44
284.901	1602.44
285.132	1642.44
285.364	1622.44
285.595	1603.44
285.826	1621.44
286.057	1612.44
286.288	1578.44
286.52	1665.44
286.751	1782.44
286.982	1848.44
287.213	1662.44
287.444	1514.44
287.675	1511.44
287.906	1571.44
288.138	1721.44
288.369	1690.44
288.6	1589.44
288.831	1538.44
289.062	1566.44
289.293	1604.44
289.524	1606.44
289.755	1628.44
289.986	1637.44
290.217	1548.44
290.448	1530.44
290.679	1594.44
290.91	1591.44
291.141	1656.44
291.371	1714.44
291.602	1692.44
291.833	1643.44
292.064	1722.44
292.295	1686.44
292.526	1715.44
292.757	1820.44
292.987	1734.44
293.218	1632.44
293.449	1763.44
293.68	2014.44
293.91	2136.44
294.141	1986.44
294.372	1822.44
294.603	1888.44
294.833	2033.44
295.064	1906.44
295.295	1676.44
295.525	1677.44
295.756	1522.44
295.987	1492.44
296.217	1504.44
296.448	1554.44
296.679	1592.44
296.909	1566.44
297.14	1528.44
297.37	1593.44
297.601	1682.44
297.831	1830.44
298.062	1819.44
298.292	1658.44
298.523	1583.44
298.753	1585.44
298.984	1602.44
299.214	1612.44
299.445	1618.44
299.675	1651.44
299.905	1672.44
300.136	1653.44
300.366	1633.44
300.597	1543.44
300.827	1536.44
301.057	1607.44
301.288	1728.44
301.518	1735.44
301.748	1736.44
301.979	1824.44
302.209	1810.44
302.439	1981.44
302.669	2076.44
302.9	1904.44
303.13	1682.44
303.36	1710.44
303.59	1762.44
303.82	1691.44
304.051	1694.44
304.281	1716.44
304.511	1704.44
304.741	1819.44
304.971	1957.44
305.201	2153.44
305.431	2050.44
305.661	1679.44
305.891	1499.44
306.121	1488.44
306.352	1584.44
306.582	1663.44
306.812	1753.44
307.042	1941.44
307.272	1906.44
307.502	1939.44
307.731	2088.44
307.961	2292.44
308.191	2098.44
308.421	1828.44
308.651	1666.44
308.881	1602.44
309.111	1664.44
309.341	1611.44
309.571	1672.44
309.8	1619.44
310.03	1624.44
310.26	1628.44
310.49	1636.44
310.72	1655.44
310.949	1734.44
311.179	1801.44
311.409	1749.44
311.639	1682.44
311.868	1643.44
312.098	1672.44
312.328	1657.44
312.557	1625.44
312.787	1672.44
313.017	1733.44
313.246	1698.44
313.476	1692.44
313.706	1732.44
313.935	1765.44
314.165	1818.44
314.394	1802.44
314.624	1910.44
314.853	2021.44
315.083	2085.44
315.312	2172.44
315.542	2011.44
315.771	1743.44
316.001	1772.44
316.23	1903.44
316.46	1861.44
316.689	1824.44
316.919	1733.44
317.148	1690.44
317.377	1688.44
317.607	1808.44
317.836	2065.44
318.065	2129.44
318.295	2042.44
318.524	1936.44
318.753	1861.44
318.983	1876.44
319.212	1827.44
319.441	1815.44
319.67	1762.44
319.9	1804.44
320.129	1910.44
320.358	1995.44
320.587	2008.44
320.816	2001.44
321.046	1963.44
321.275	1826.44
321.504	1826.44
321.733	2051.44
321.962	2032.44
322.191	1795.44
322.42	1781.44
322.649	1796.44
322.878	1752.44
323.108	1815.44
323.337	1896.44
323.566	1857.44
323.795	1862.44
324.024	1848.44
324.253	1819.44
324.482	1844.44
324.71	1800.44
324.939	1694.44
325.168	1746.44
325.397	1795.44
325.626	1893.44
325.855	1865.44
326.084	1798.44
326.313	1822.44
326.542	1835.44
326.77	1925.44
326.999	1931.44
327.228	1825.44
327.457	1705.44
327.686	1714.44
327.914	1733.44
328.143	1814.44
328.372	1813.44
328.6	1824.44
328.829	1753.44
329.058	1743.44
329.287	1756.44
329.515	1799.44
329.744	1804.44
329.972	1887.44
330.201	2001.44
330.43	1968.44
330.658	1924.44
330.887	1884.44
331.115	1894.44
331.344	1922.44
331.572	1916.44
331.801	1899.44
332.03	1876.44
332.258	1914.44
332.486	1933.44
332.715	1950.44
332.943	1919.44
333.172	1891.44
333.4	1887.44
333.629	2016.44
333.857	2034.44
334.085	2282.44
334.314	2557.44
334.542	2924.44
334.771	2663.44
334.999	2295.44
335.227	2206.44
335.455	2081.44
335.684	2046.44
335.912	2055.44
336.14	2220.44
336.369	2097.44
336.597	1966.44
336.825	1891.44
337.053	1972.44
337.281	2088.44
337.51	2196.44
337.738	2293.44
337.966	2180.44
338.194	1984.44
338.422	1889.44
338.65	1881.44
338.878	1867.44
339.106	1798.44
339.334	1813.44
339.562	1752.44
339.79	1823.44
340.018	1893.44
340.246	1991.44
340.474	2010.44
340.702	1929.44
340.93	1978.44
341.158	1928.44
341.386	1920.44
341.614	1871.44
341.842	1872.44
342.07	1894.44
342.298	1856.44
342.526	1899.44
342.754	1839.44
342.981	1856.44
343.209	1857.44
343.437	1856.44
343.665	1916.44
343.893	1901.44
344.12	1996.44
344.348	2031.44
344.576	1952.44
344.804	1855.44
345.031	1889.44
345.259	1894.44
345.487	1857.44
345.714	1746.44
345.942	1730.44
346.17	1711.44
346.397	1770.44
346.625	1800.44
346.853	1699.44
347.08	1683.44
347.308	1679.44
347.535	1714.44
347.763	1775.44
347.99	1800.44
348.218	1682.44
348.445	1701.44
348.673	1730.44
348.9	1794.44
349.128	1847.44
349.355	1896.44
349.583	1844.44
349.81	1764.44
350.037	1644.44
350.265	1630.44
350.492	1640.44
350.72	1715.44
350.947	1742.44
351.174	1790.44
351.402	1745.44
351.629	1604.44
351.856	1599.44
352.083	1600.44
352.311	1575.44
352.538	1675.44
352.765	1731.44
352.992	1825.44
353.22	1727.44
353.447	1674.44
353.674	1714.44
353.901	1742.44
354.128	1650.44
354.355	1695.44
354.583	1717.44
354.81	1793.44
355.037	1780.44
355.264	1777.44
355.491	1769.44
355.718	1757.44
355.945	1715.44
356.172	1705.44
356.399	1669.44
356.626	1670.44
356.853	1726.44
357.08	1823.44
357.307	2063.44
357.534	2050.44
357.761	1810.44
357.988	1665.44
358.215	1605.44
358.441	1622.44
358.668	1626.44
358.895	1639.44
359.122	1781.44
359.349	1902.44
359.576	1924.44
359.802	1748.44
360.029	1664.44
360.256	1667.44
360.483	1660.44
360.709	1703.44
360.936	1812.44
361.163	1792.44
361.39	2023.44
361.616	2191.44
361.843	2092.44
362.07	2028.44
362.296	1761.44
362.523	1701.44
362.749	1691.44
362.976	1715.44
363.203	1803.44
363.429	1730.44
363.656	1645.44
363.882	1699.44
364.109	1871.44
364.335	2064.44
364.562	1934.44
364.788	1838.44
365.015	1761.44
365.241	1672.44
365.468	1694.44
365.694	1822.44
365.92	1857.44
366.147	1782.44
366.373	1692.44
366.599	1629.44
366.826	1639.44
367.052	1642.44
367.278	1710.44
367.505	1745.44
367.731	1749.44
367.957	1787.44
368.184	1783.44
368.41	1850.44
368.636	1886.44
368.862	1918.44
369.089	1944.44
369.315	1858.44
369.541	1806.44
369.767	1773.44
369.993	1696.44
370.219	1691.44
370.445	1728.44
370.672	1833.44
370.898	1952.44
371.124	1896.44
371.35	1805.44
371.576	1842.44
371.802	1986.44
372.028	1858.44
372.254	1743.44
372.48	1718.44
372.706	1690.44
372.932	1679.44
373.158	1728.44
373.384	1794.44
373.61	1819.44
373.835	1952.44
374.061	1812.44
374.287	1763.44
374.513	1798.44
374.739	1794.44
374.965	1776.44
375.191	1833.44
375.416	1820.44
375.642	1871.44
375.868	1949.44
376.094	2023.44
376.319	1909.44
376.545	1760.44
376.771	1831.44
376.997	1914.44
377.222	1913.44
377.448	1849.44
377.674	1890.44
377.899	1887.44
378.125	1946.44
378.35	1957.44
378.576	1807.44
378.802	1712.44
379.027	1732.44
379.253	1767.44
379.478	1810.44
379.704	1734.44
379.929	1774.44
380.155	1769.44
380.38	1780.44
380.606	1802.44
380.831	1812.44
381.057	1897.44
381.282	1918.44
381.507	1858.44
381.733	1969.44
381.958	2082.44
382.184	1906.44
382.409	1829.44
382.634	1888.44
382.86	1849.44
383.085	1888.44
383.31	1868.44
383.535	2046.44
383.761	2168.44
383.986	2105.44
384.211	2055.44
384.436	2048.44
384.662	2056.44
384.887	2167.44
385.112	2035.44
385.337	2111.44
385.562	2044.44
385.787	2051.44
386.013	2096.44
386.238	2107.44
386.463	2071.44
386.688	2251.44
386.913	2339.44
387.138	2298.44
387.363	2140.44
387.588	2134.44
387.813	2095.44
388.038	2100.44
388.263	2179.44
388.488	2134.44
388.713	1934.44
388.938	1946.44
389.163	2003.44
389.387	1996.44
389.612	2000.44
389.837	2045.44
390.062	2098.44
390.287	2040.44
390.512	2047.44
390.736	2023.44
390.961	2002.44
391.186	1939.44
391.411	1945.44
391.636	2027.44
391.86	2053.44
392.085	2028.44
392.31	2007.44
392.534	2050.44
392.759	2052.44
392.984	2033.44
393.208	2099.44
393.433	2118.44
393.658	2188.44
393.882	2212.44
394.107	2117.44
394.331	2014.44
394.556	2017.44
394.78	2062.44
395.005	2131.44
395.229	2163.44
395.454	2338.44
395.678	2350.44
395.903	2249.44
396.127	2184.44
396.352	2159.44
396.576	2224.44
396.801	2286.44
397.025	2214.44
397.249	2228.44
397.474	2194.44
397.698	2180.44
397.922	2250.44
398.147	2378.44
398.371	2468.44
398.595	2480.44
398.82	2338.44
399.044	2355.44
399.268	2535.44
399.492	2680.44
399.717	2734.44
399.941	2769.44
400.165	2670.44
400.389	2606.44
400.613	2619.44
400.837	2809.44
401.062	3268.44
401.286	2840.44
401.51	2542.44
401.734	2678.44
401.958	2609.44
402.182	2411.44
402.406	2290.44
402.63	2271.44
402.854	2312.44
403.078	2312.44
403.302	2443.44
403.526	2426.44
403.75	2446.44
403.974	2402.44
404.198	2430.44
404.422	2496.44
404.645	2635.44
404.869	2612.44
405.093	2390.44
405.317	2333.44
405.541	2421.44
405.765	2480.44
405.988	2467.44
406.212	2482.44
406.436	2515.44
406.66	2587.44
406.883	2632.44
407.107	2924.44
407.331	3175.44
407.555	3402.44
407.778	3221.44
408.002	2635.44
408.226	2544.44
408.449	2530.44
408.673	2475.44
408.896	2526.44
409.12	2529.44
409.344	2492.44
409.567	2388.44
409.791	2513.44
410.014	2489.44
410.238	2581.44
410.461	2744.44
410.685	2530.44
410.908	2368.44
411.132	2430.44
411.355	2424.44
411.578	2394.44
411.802	2404.44
412.025	2456.44
412.249	2388.44
412.472	2326.44
412.695	2288.44
412.919	2276.44
413.142	2313.44
413.365	2396.44
413.589	2375.44
413.812	2495.44
414.035	2568.44
414.258	2351.44
414.482	2287.44
414.705	2350.44
414.928	2269.44
415.151	2308.44
415.374	2334.44
415.597	2368.44
415.821	2393.44
416.044	2430.44
416.267	2470.44
416.49	2233.44
416.713	2243.44
416.936	2339.44
417.159	2364.44
417.382	2428.44
417.605	2258.44
417.828	2339.44
418.051	2388.44
418.274	2343.44
418.497	2240.44
418.72	2244.44
418.943	2233.44
419.166	2403.44
419.389	2467.44
419.611	2345.44
419.834	2267.44
420.057	2307.44
420.28	2227.44
420.503	2234.44
420.726	2254.44
420.948	2270.44
421.171	2209.44
421.394	2258.44
421.617	2273.44
421.839	2285.44
422.062	2240.44
422.285	2252.44
422.507	2234.44
422.73	2164.44
422.953	2085.44
423.175	2140.44
423.398	2194.44
423.621	2224.44
423.843	2208.44
424.066	2267.44
424.288	2360.44
424.511	2403.44
424.733	2342.44
424.956	2137.44
425.178	2123.44
425.401	2176.44
425.623	2156.44
425.846	2135.44
426.068	2303.44
426.291	2360.44
426.513	2308.44
426.735	2303.44
426.958	2428.44
427.18	2600.44
427.402	2384.44
427.625	2411.44
427.847	2435.44
428.069	2306.44
428.292	2188.44
428.514	2103.44
428.736	2097.44
428.958	2192.44
429.181	2218.44
429.403	2450.44
429.625	3019.44
429.847	2687.44
430.069	2266.44
430.292	2444.44
430.514	2583.44
430.736	2356.44
430.958	2506.44
431.18	2336.44
431.402	2170.44
431.624	2182.44
431.846	2142.44
432.068	2100.44
432.29	2180.44
432.512	2118.44
432.734	2195.44
432.956	2259.44
433.178	2340.44
433.4	2337.44
433.622	2401.44
433.844	2180.44
434.066	2124.44
434.287	2133.44
434.509	2260.44
434.731	2320.44
434.953	2478.44
435.175	2450.44
435.397	2306.44
435.618	2303.44
435.84	2252.44
436.062	2275.44
436.284	2257.44
436.505	2252.44
436.727	2356.44
436.949	2232.44
437.17	2184.44
437.392	2151.44
437.614	2184.44
437.835	2133.44
438.057	2284.44
438.278	2402.44
438.5	2210.44
438.721	2134.44
438.943	2187.44
439.165	2140.44
439.386	2106.44
439.608	2158.44
439.829	2139.44
440.05	2198.44
440.272	2170.44
440.493	2090.44
440.715	2135.44
440.936	2289.44
441.158	2620.44
441.379	2480.44
441.6	2430.44
441.822	2355.44
442.043	2345.44
442.264	2295.44
442.486	2180.44
442.707	2170.44
442.928	2155.44
443.149	2205.44
443.371	2345.44
443.592	2453.44
443.813	2371.44
444.034	2334.44
444.255	2375.44
444.476	2449.44
444.698	2484.44
444.919	2466.44
445.14	2532.44
445.361	2520.44
445.582	2602.44
445.803	2474.44
446.024	2409.44
446.245	2467.44
446.466	2378.44
446.687	2237.44
446.908	2322.44
447.129	2186.44
447.35	2248.44
447.571	2204.44
447.792	2129.44
448.013	2103.44
448.234	2163.44
448.455	2281.44
448.675	2305.44
448.896	2078.44
449.117	2072.44
449.338	2124.44
449.559	2161.44
449.779	2342.44
450	2598.44
450.221	2777.44
450.442	2701.44
450.662	2326.44
450.883	2098.44
451.104	2023.44
451.324	2066.44
451.545	2176.44
451.766	2140.44
451.986	2009.44
452.207	2025.44
452.428	1978.44
452.648	1923.44
452.869	1991.44
453.089	2088.44
453.31	2124.44
453.53	2166.44
453.751	2124.44
453.971	1961.44
454.192	2018.44
454.412	2171.44
454.633	2086.44
454.853	2008.44
455.073	1900.44
455.294	1836.44
455.514	1890.44
455.734	1900.44
455.955	1951.44
456.175	1960.44
456.395	1923.44
456.616	1994.44
456.836	2039.44
457.056	2004.44
457.276	1993.44
457.497	1918.44
457.717	1881.44
457.937	1916.44
458.157	1992.44
458.377	1952.44
458.598	1940.44
458.818	1939.44
459.038	2081.44
459.258	2241.44
459.478	2202.44
459.698	2142.44
459.918	2155.44
460.138	2247.44
460.358	2312.44
460.578	2343.44
460.798	2392.44
461.018	2562.44
461.238	2482.44
461.458	2344.44
461.678	2329.44
461.898	2305.44
462.118	2247.44
462.338	2318.44
462.558	2345.44
462.777	2313.44
462.997	2433.44
463.217	2598.44
463.437	2545.44
463.657	2370.44
463.876	2337.44
464.096	2352.44
464.316	2315.44
464.536	2438.44
464.755	2391.44
464.975	2472.44
465.195	2330.44
465.414	2500.44
465.634	2491.44
465.854	2307.44
466.073	2458.44
466.293	2385.44
466.512	2133.44
466.732	2134.44
466.951	2232.44
467.171	2213.44
467.391	2126.44
467.61	2054.44
467.829	2108.44
468.049	2235.44
468.268	2535.44
468.488	2390.44
468.707	2241.44
468.927	2208.44
469.146	2156.44
469.365	2082.44
469.585	2103.44
469.804	2130.44
470.023	2073.44
470.243	2124.44
470.462	2100.44
470.681	2055.44
470.901	2104.44
471.12	2154.44
471.339	2058.44
471.558	2060.44
471.777	2015.44
471.997	2088.44
472.216	2067.44
472.435	2009.44
472.654	2055.44
472.873	2107.44
473.092	2280.44
473.311	2186.44
473.53	2034.44
473.749	2019.44
473.968	2091.44
474.187	2224.44
474.406	2321.44
474.625	2179.44
474.844	2132.44
475.063	2130.44
475.282	2232.44
475.501	2172.44
475.72	2137.44
475.939	2304.44
476.158	2242.44
476.377	2152.44
476.596	2188.44
476.814	2211.44
477.033	2215.44
477.252	2323.44
477.471	2384.44
477.69	2247.44
477.908	2246.44
478.127	2362.44
478.346	2572.44
478.564	2609.44
478.783	2506.44
479.002	2614.44
479.22	2572.44
479.439	2622.44
479.658	3049.44
479.876	3017.44
480.095	2624.44
480.313	2498.44
480.532	2353.44
480.751	2390.44
480.969	2445.44
481.188	2427.44
481.406	2382.44
481.624	2328.44
481.843	2340.44
482.061	2379.44
482.28	2423.44
482.498	2469.44
482.717	2507.44
482.935	2369.44
483.153	2344.44
483.372	2354.44
483.59	2319.44
483.808	2350.44
484.027	2403.44
484.245	2573.44
484.463	2924.44
484.681	3392.44
484.9	2594.44
485.118	2496.44
485.336	2438.44
485.554	2495.44
485.772	2610.44
485.99	2542.44
486.209	2529.44
486.427	2537.44
486.645	2543.44
486.863	2489.44
487.081	2558.44
487.299	2662.44
487.517	2572.44
487.735	2482.44
487.953	2443.44
488.171	2418.44
488.389	2404.44
488.607	2448.44
488.825	2728.44
489.043	2785.44
489.261	2464.44
489.479	2628.44
489.696	2651.44
489.914	2616.44
490.132	2542.44
490.35	2499.44
490.568	2602.44
490.786	2509.44
491.003	2424.44
491.221	2468.44
491.439	2601.44
491.657	2580.44
491.874	2540.44
492.092	2608.44
492.31	2585.44
492.527	2559.44
492.745	2515.44
492.963	2527.44
493.18	2632.44
493.398	2796.44
493.615	2868.44
493.833	2618.44
494.05	2570.44
494.268	2591.44
494.485	2633.44
494.703	2611.44
494.92	2521.44
495.138	2534.44
495.355	2578.44
495.573	2694.44
495.79	2884.44
496.008	2875.44
496.225	2686.44
496.442	2656.44
496.66	2764.44
496.877	2693.44
497.094	2842.44
497.312	2836.44
497.529	2888.44
497.746	2858.44
497.963	3349.44
498.181	3775.44
498.398	3574.44
498.615	3450.44
498.832	3320.44
499.049	3279.44
499.267	3272.44
499.484	3523.44
499.701	3866.44
499.918	3803.44
500.135	4059.44
500.352	4448.44
500.569	4323.44
500.786	4671.44
501.003	4315.44
501.22	3940.44
501.437	3845.44
501.654	3812.44
501.871	3712.44
502.088	3268.44
502.305	3303.44
502.522	3153.44
502.739	2961.44
502.956	2886.44
503.172	2834.44
503.389	2777.44
503.606	2700.44
503.823	2700.44
504.04	2748.44
504.256	2721.44
504.473	2716.44
504.69	2872.44
504.907	2686.44
505.123	2519.44
505.34	2642.44
505.557	3455.44
505.773	2976.44
505.99	2512.44
506.207	2334.44
506.423	2309.44
506.64	2283.44
506.856	2326.44
507.073	2657.44
507.289	2882.44
507.506	2726.44
507.722	2350.44
507.939	2259.44
508.155	2224.44
508.372	2258.44
508.588	2202.44
508.805	2142.44
509.021	2148.44
509.238	2086.44
509.454	2075.44
509.67	2158.44
509.887	2082.44
510.103	2099.44
510.319	2126.44
510.536	2218.44
510.752	2279.44
510.968	2245.44
511.184	2472.44
511.401	2458.44
511.617	2098.44
511.833	2063.44
512.049	2030.44
512.265	2038.44
512.481	2022.44
512.698	2103.44
512.914	2236.44
513.13	2178.44
513.346	2092.44
513.562	2014.44
513.778	2063.44
513.994	2183.44
514.21	2257.44
514.426	2228.44
514.642	2479.44
514.858	2402.44
515.074	2146.44
515.29	2121.44
515.506	2121.44
515.721	2183.44
515.937	2223.44
516.153	2535.44
516.369	2446.44
516.585	2219.44
516.801	2180.44
517.016	2153.44
517.232	2202.44
517.448	2286.44
517.664	2315.44
517.879	2236.44
518.095	2375.44
518.311	2367.44
518.527	2200.44
518.742	2123.44
518.958	2067.44
519.173	2066.44
519.389	2132.44
519.605	2159.44
519.82	2162.44
520.036	2119.44
520.251	2098.44
520.467	2095.44
520.682	2233.44
520.898	2415.44
521.113	2129.44
521.329	2086.44
521.544	2240.44
521.76	2146.44
521.975	2014.44
522.19	1988.44
522.406	1981.44
522.621	2389.44
522.836	2410.44
523.052	1906.44
523.267	2004.44
523.482	2020.44
523.698	1904.44
523.913	1834.44
524.128	1874.44
524.343	2002.44
524.559	2055.44
524.774	1933.44
524.989	1920.44
525.204	1909.44
525.419	1844.44
525.634	1836.44
525.849	1887.44
526.064	1857.44
526.28	1891.44
526.495	1846.44
526.71	1825.44
526.925	1839.44
527.14	1824.44
527.355	1763.44
527.57	1803.44
527.785	1866.44
527.999	1820.44
528.214	1742.44
528.429	1736.44
528.644	1750.44
528.859	1800.44
529.074	1807.44
529.289	1797.44
529.503	1798.44
529.718	1839.44
529.933	1811.44
530.148	1740.44
530.363	1723.44
530.577	1750.44
530.792	1806.44
531.007	1834.44
531.221	1791.44
531.436	1807.44
531.651	1872.44
531.865	1958.44
532.08	1854.44
532.295	1746.44
532.509	1692.44
532.724	1719.44
532.938	1831.44
533.153	1945.44
533.367	1820.44
533.582	1800.44
533.796	1724.44
534.011	1792.44
534.225	1802.44
534.44	1731.44
534.654	1682.44
534.868	1751.44
535.083	1782.44
535.297	1799.44
535.511	1762.44
535.726	1762.44
535.94	1745.44
536.154	1752.44
536.369	1727.44
536.583	1707.44
536.797	1696.44
537.011	1786.44
537.225	1694.44
537.44	1654.44
537.654	1745.44
537.868	1675.44
538.082	1563.44
538.296	1587.44
538.51	1630.44
538.724	1650.44
538.938	1631.44
539.153	1687.44
539.367	1705.44
539.581	1648.44
539.795	1716.44
540.009	1712.44
540.222	1694.44
540.436	1719.44
540.65	1869.44
540.864	1911.44
541.078	1772.44
541.292	1641.44
541.506	1639.44
541.72	1691.44
541.934	1646.44
542.147	1723.44
542.361	1671.44
542.575	1626.44
542.789	1575.44
543.002	1577.44
543.216	1582.44
543.43	1703.44
543.644	1759.44
543.857	1816.44
544.071	1766.44
544.285	1707.44
544.498	1646.44
544.712	1665.44
544.925	1678.44
545.139	1740.44
545.352	1664.44
545.566	1612.44
545.779	1594.44
545.993	1610.44
546.206	1639.44
546.42	1554.44
546.633	1541.44
546.847	1532.44
547.06	1557.44
547.274	1577.44
547.487	1551.44
547.7	1548.44
547.914	1593.44
548.127	1614.44
548.34	1634.44
548.554	1608.44
548.767	1574.44
548.98	1577.44
549.193	1548.44
549.407	1649.44
549.62	1678.44
549.833	1530.44
550.046	1564.44
550.259	1557.44
550.473	1566.44
550.686	1566.44
550.899	1508.44
551.112	1499.44
551.325	1546.44
551.538	1607.44
551.751	1872.44
551.964	1524.44
552.177	1464.44
552.39	1540.44
552.603	1528.44
552.816	1526.44
553.029	1632.44
553.242	1662.44
553.455	1588.44
553.667	1594.44
553.88	1539.44
554.093	1562.44
554.306	1449.44
554.519	1444.44
554.732	1425.44
554.944	1474.44
555.157	1521.44
555.37	1473.44
555.583	1467.44
555.795	1446.44
556.008	1398.44
556.221	1400.44
556.433	1335.44
556.646	1387.44
556.859	1347.44
557.071	1337.44
557.284	1321.44
557.496	1357.44
557.709	1312.44
557.921	1323.44
558.134	1311.44
558.346	1303.44
558.559	1306.44
558.771	1327.44
558.984	1264.44
559.196	1231.44
559.409	1255.44
559.621	1249.44
559.833	1262.44
560.046	1338.44
560.258	1320.44
560.47	1280.44
560.683	1251.44
560.895	1261.44
561.107	1292.44
561.32	1286.44
561.532	1296.44
561.744	1291.44
561.956	1304.44
562.168	1270.44
562.381	1252.44
562.593	1224.44
562.805	1266.44
563.017	1239.44
563.229	1238.44
563.441	1267.44
563.653	1248.44
563.865	1257.44
564.077	1224.44
564.289	1225.44
564.501	1264.44
564.713	1341.44
564.925	1328.44
565.137	1454.44
565.349	1371.44
565.561	1334.44
565.773	1355.44
565.985	1366.44
566.197	1415.44
566.408	1496.44
566.62	1512.44
566.832	1522.44
567.044	1562.44
567.255	1519.44
567.467	1498.44
567.679	1596.44
567.891	1659.44
568.102	1580.44
568.314	1542.44
568.526	1488.44
568.737	1387.44
568.949	1346.44
569.161	1251.44
569.372	1225.44
569.584	1228.44
569.795	1205.44
570.007	1236.44
570.218	1169.44
570.43	1138.44
570.641	1146.44
570.853	1142.44
571.064	1157.44
571.276	1151.44
571.487	1136.44
571.698	1089.44
571.91	1074.44
572.121	1056.44
572.333	1057.44
572.544	1025.44
572.755	1002.44
572.966	1017.44
573.178	1022.44
573.389	1020.44
573.6	1062.44
573.811	1137.44
574.023	1028.44
574.234	1013.44
574.445	987.44
574.656	987.44
574.867	931.44
575.078	953.44
575.289	958.44
575.501	966.44
575.712	925.44
575.923	947.44
576.134	962.44
576.345	927.44
576.556	922.44
576.767	901.44
576.978	915.44
577.188	904.44
577.399	884.44
577.61	878.44
577.821	859.44
578.032	844.44
578.243	863.44
578.454	896.44
578.665	868.44
578.875	835.44
579.086	832.44
579.297	842.44
579.508	909.44
579.718	872.44
579.929	842.44
580.14	836.44
580.35	833.44
580.561	859.44
580.772	937.44
580.982	869.44
581.193	835.44
581.403	810.44
581.614	810.44
581.825	820.44
582.035	824.44
582.246	812.44
582.456	825.44
582.667	808.44
582.877	808.44
583.087	775.44
583.298	801.44
583.508	814.44
583.719	818.44
583.929	811.44
584.139	815.44
584.35	776.44
584.56	783.44
584.77	798.44
584.981	795.44
585.191	804.44
585.401	832.44
585.611	810.44
585.821	795.44
586.032	779.44
586.242	769.44
586.452	766.44
586.662	781.44
586.872	770.44
587.082	747.44
587.292	799.44
587.502	811.44
587.713	792.44
587.923	787.44
588.133	791.44
588.343	812.44
588.553	767.44
588.762	790.44
588.972	758.44
589.182	772.44
589.392	742.44
589.602	796.44
589.812	770.44
590.022	747.44
590.232	757.44
590.441	760.44
590.651	790.44
590.861	761.44
591.071	777.44
591.281	754.44
591.49	744.44
591.7	750.44
591.91	748.44
592.119	768.44
592.329	776.44
592.539	777.44
592.748	775.44
592.958	766.44
593.167	794.44
593.377	817.44
593.587	827.44
593.796	800.44
594.006	809.44
594.215	806.44
594.424	796.44
594.634	774.44
594.843	776.44
595.053	801.44
595.262	761.44
595.472	757.44
595.681	761.44
595.89	744.44
596.1	718.44
596.309	709.44
596.518	742.44
596.727	747.44
596.937	701.44
597.146	676.44
597.355	667.44
597.564	689.44
597.774	676.44
597.983	643.44
598.192	663.44
598.401	648.44
598.61	633.44
598.819	603.44
599.028	658.44
599.237	648.44
599.446	641.44
599.655	626.44
599.864	626.44
600.073	639.44
600.282	603.44
600.491	619.44
600.7	627.44
600.909	626.44
601.118	614.44
601.327	640.44
601.536	630.44
601.745	628.44
601.953	600.44
602.162	606.44
602.371	625.44
602.58	599.44
602.789	600.44
602.997	638.44
603.206	613.44
603.415	579.44
603.623	606.44
603.832	601.44
604.041	584.44
604.249	558.44
604.458	598.44
604.666	611.44
604.875	591.44
605.084	602.44
605.292	613.44
605.501	603.44
605.709	570.44
605.918	539.44
606.126	558.44
606.334	562.44
606.543	591.44
606.751	574.44
606.96	582.44
607.168	579.44
607.376	547.44
607.585	563.44
607.793	555.44
608.001	559.44
608.21	560.44
608.418	561.44
608.626	580.44
608.834	587.44
609.043	567.44
609.251	551.44
609.459	537.44
609.667	571.44
609.875	561.44
610.083	591.44
610.291	578.44
610.499	587.44
610.707	567.44
610.916	536.44
611.124	548.44
611.332	540.44
611.54	524.44
611.748	547.44
611.955	530.44
612.163	506.44
612.371	522.44
612.579	543.44
612.787	551.44
612.995	550.44
613.203	536.44
613.411	524.44
613.618	532.44
613.826	528.44
614.034	568.44
614.242	532.44
614.449	537.44
614.657	537.44
614.865	540.44
615.072	559.44
615.28	537.44
615.488	555.44
615.695	561.44
615.903	553.44
616.111	524.44
616.318	528.44
616.526	512.44
616.733	530.44
616.941	509.44
617.148	502.44
617.356	515.44
617.563	507.44
617.771	516.44
617.978	501.44
618.185	506.44
618.393	500.44
618.6	502.44
618.807	534.44
619.015	514.44
619.222	497.44
619.429	508.44
619.637	501.44
619.844	463.44
620.051	478.44
620.258	498.44
620.466	478.44
620.673	472.44
620.88	475.44
621.087	473.44
621.294	484.44
621.501	491.44
621.708	481.44
621.915	494.44
622.122	496.44
622.329	458.44
622.536	466.44
622.743	466.44
622.95	451.44
623.157	433.44
623.364	464.44
623.571	474.44
623.778	458.44
623.985	477.44
624.192	441.44
624.399	455.44
624.606	472.44
624.812	455.44
625.019	431.44
625.226	438.44
625.433	459.44
625.639	452.44
625.846	431.44
626.053	408.44
626.259	417.44
626.466	441.44
626.673	430.44
626.879	422.44
627.086	419.44
627.293	407.44
627.499	415.44
627.706	400.44
627.912	424.44
628.119	428.44
628.325	421.44
628.532	427.44
628.738	418.44
628.945	425.44
629.151	420.44
629.357	432.44
629.564	422.44
629.77	380.44
629.976	413.44
630.183	411.44
630.389	406.44
630.595	397.44
630.802	399.44
631.008	400.44
631.214	406.44
631.42	378.44
631.627	402.44
631.833	403.44
632.039	384.44
632.245	378.44
632.451	411.44
632.657	388.44
632.863	372.44
633.069	388.44
633.275	387.44
633.481	387.44
633.688	362.44
633.893	380.44
634.099	356.44
634.305	360.44
634.511	367.44
634.717	366.44
634.923	355.44
635.129	330.44
635.335	356.44
635.541	374.44
635.747	376.44
635.952	366.44
636.158	377.44
636.364	374.44
636.57	366.44
636.775	344.44
636.981	359.44
637.187	359.44
637.392	356.44
637.598	338.44
637.804	359.44
638.009	363.44
638.215	349.44
638.421	337.44
638.626	352.44
638.832	344.44
639.037	336.44
639.243	336.44
639.448	341.44
639.654	331.44
639.859	339.44
640.065	329.44
640.27	348.44
640.475	338.44
640.681	345.44
640.886	343.44
641.091	337.44
641.297	351.44
641.502	361.44
641.707	331.44
641.913	339.44
642.118	332.44
642.323	335.44
642.528	354.44
642.733	320.44
642.939	315.44
643.144	325.44
643.349	339.44
643.554	339.44
643.759	320.44
643.964	315.44
644.169	320.44
644.374	319.44
644.579	322.44
644.784	336.44
644.989	337.44
645.194	332.44
645.399	310.44
645.604	313.44
645.809	321.44
646.014	327.44
646.219	312.44
646.423	312.44
646.628	344.44
646.833	319.44
647.038	329.44
647.243	303.44
647.447	320.44
647.652	337.44
647.857	322.44
648.062	348.44
648.266	315.44
648.471	337.44
648.676	341.44
648.88	333.44
649.085	315.44
649.289	327.44
649.494	310.44
649.698	299.44
649.903	288.44
650.107	306.44
650.312	320.44
650.516	290.44
650.721	299.44
650.925	273.44
651.13	290.44
651.334	290.44
651.539	287.44
651.743	290.44
651.947	271.44
652.152	266.44
652.356	266.44
652.56	276.44
652.764	256.44
652.969	273.44
653.173	266.44
653.377	248.44
653.581	268.44
653.785	270.44
653.99	251.44
654.194	235.44
654.398	250.44
654.602	226.44
654.806	256.44
655.01	260.44
655.214	243.44
655.418	255.44
655.622	240.44
655.826	260.44
656.03	239.44
656.234	242.44
656.438	273.44
656.642	259.44
656.846	262.44
657.049	239.44
657.253	226.44
657.457	226.44
657.661	199.44
657.865	178.44
658.068	171.44
658.272	176.44
658.476	174.44
658.68	153.44
658.883	156.44
659.087	147.44
659.291	141.44
659.494	129.44
659.698	123.44
659.901	130.44
660.105	134.44
660.309	128.44
660.512	120.44
660.716	114.44
660.919	119.44
661.123	126.44
661.326	111.44
661.53	104.44
661.733	100.44
661.936	103.44
662.14	110.44
662.343	92.44
662.546	96.44
662.75	102.44
662.953	81.44
663.156	108.44
663.36	100.44
663.563	78.44
663.766	94.44
663.969	90.44
664.173	78.44
664.376	91.44
664.579	81.44
664.782	89.44
664.985	106.44
665.188	69.44
665.391	73.44
665.594	80.44
665.797	86.44
666	83.44
666.203	78.44
666.406	80.44
666.609	86.44
666.812	83.44
667.015	76.44
667.218	82.44
667.421	83.44
667.624	78.44
667.827	93.44
668.03	95.44
668.232	69.44
668.435	68.44
668.638	86.44
668.841	72.44
669.043	67.44
669.246	91.44
669.449	79.44
669.651	94.44
669.854	83.44
670.057	102.44
670.259	82.44
670.462	76.44
670.665	83.44
670.867	78.44
671.07	79.44
671.272	74.44
671.475	83.44
671.677	82.44
671.88	80.44
672.082	75.44
672.284	73.44
672.487	88.44
672.689	85.44
672.892	90.44
