Data from Zn(NO3)2Standard.Agarose3%.GreenCap.LampEnergy5.5.E.O_HRD10591_15-03-22-768.txt Node
Date: Mon Jul 22 15:03:22 EDT 2019
User: cochatt
Spectrometer: HR+D1059
Trigger mode: 1
Integration Time (sec): 1.000000E-1
Scans to average: 1
Electric dark correction enabled: true
Nonlinearity correction enabled: false
Boxcar width: 0
XAxis mode: Wavelengths
Number of Pixels in Spectrum: 2048
>>>>>Begin Spectral Data<<<<<
223.165	-17.69
223.4	-17.69
223.635	-17.69
223.869	-14.69
224.104	-20.69
224.338	-7.69
224.573	-15.69
224.808	-11.69
225.042	-13.69
225.277	-8.69
225.511	-12.69
225.746	4.31
225.98	6.31
226.215	15.31
226.449	23.31
226.683	28.31
226.918	19.31
227.152	26.31
227.387	39.31
227.621	36.31
227.856	42.31
228.09	46.31
228.324	40.31
228.559	58.31
228.793	68.31
229.027	58.31
229.262	55.31
229.496	71.31
229.73	74.31
229.964	67.31
230.199	84.31
230.433	69.31
230.667	80.31
230.901	94.31
231.136	83.31
231.37	85.31
231.604	78.31
231.838	94.31
232.072	75.31
232.306	78.31
232.541	88.31
232.775	81.31
233.009	94.31
233.243	91.31
233.477	80.31
233.711	90.31
233.945	84.31
234.179	81.31
234.413	80.31
234.647	94.31
234.881	76.31
235.115	75.31
235.349	85.31
235.583	79.31
235.817	76.31
236.051	80.31
236.285	81.31
236.519	98.31
236.753	95.31
236.987	86.31
237.221	78.31
237.455	80.31
237.689	81.31
237.922	79.31
238.156	66.31
238.39	75.31
238.624	84.31
238.858	79.31
239.091	75.31
239.325	81.31
239.559	79.31
239.793	72.31
240.027	80.31
240.26	75.31
240.494	72.31
240.728	70.31
240.961	70.31
241.195	87.31
241.429	76.31
241.662	84.31
241.896	78.31
242.13	71.31
242.363	67.31
242.597	75.31
242.83	76.31
243.064	74.31
243.298	85.31
243.531	68.31
243.765	69.31
243.998	79.31
244.232	82.31
244.465	86.31
244.699	78.31
244.932	72.31
245.166	84.31
245.399	86.31
245.633	92.31
245.866	85.31
246.099	78.31
246.333	69.31
246.566	83.31
246.8	85.31
247.033	98.31
247.266	77.31
247.5	68.31
247.733	79.31
247.966	86.31
248.2	87.31
248.433	80.31
248.666	77.31
248.899	94.31
249.133	89.31
249.366	80.31
249.599	79.31
249.832	84.31
250.066	86.31
250.299	89.31
250.532	95.31
250.765	89.31
250.998	78.31
251.231	84.31
251.465	74.31
251.698	84.31
251.931	77.31
252.164	63.31
252.397	96.31
252.63	89.31
252.863	76.31
253.096	81.31
253.329	75.31
253.562	87.31
253.795	82.31
254.028	82.31
254.261	87.31
254.494	75.31
254.727	95.31
254.96	86.31
255.193	76.31
255.426	73.31
255.659	94.31
255.892	72.31
256.124	78.31
256.357	85.31
256.59	83.31
256.823	73.31
257.056	95.31
257.289	86.31
257.521	85.31
257.754	84.31
257.987	80.31
258.22	78.31
258.452	94.31
258.685	94.31
258.918	88.31
259.151	84.31
259.383	96.31
259.616	89.31
259.849	86.31
260.081	73.31
260.314	94.31
260.547	78.31
260.779	87.31
261.012	82.31
261.244	100.31
261.477	82.31
261.71	89.31
261.942	83.31
262.175	79.31
262.407	90.31
262.64	80.31
262.872	73.31
263.105	80.31
263.337	93.31
263.57	78.31
263.802	78.31
264.035	87.31
264.267	85.31
264.499	85.31
264.732	91.31
264.964	87.31
265.197	79.31
265.429	98.31
265.661	78.31
265.894	85.31
266.126	76.31
266.358	79.31
266.591	70.31
266.823	85.31
267.055	77.31
267.287	74.31
267.52	105.31
267.752	95.31
267.984	96.31
268.216	81.31
268.448	81.31
268.681	77.31
268.913	85.31
269.145	79.31
269.377	93.31
269.609	79.31
269.841	77.31
270.073	78.31
270.306	87.31
270.538	90.31
270.77	95.31
271.002	78.31
271.234	83.31
271.466	88.31
271.698	79.31
271.93	74.31
272.162	87.31
272.394	86.31
272.626	78.31
272.858	80.31
273.09	99.31
273.322	94.31
273.553	84.31
273.785	92.31
274.017	95.31
274.249	84.31
274.481	85.31
274.713	86.31
274.945	95.31
275.176	87.31
275.408	84.31
275.64	89.31
275.872	84.31
276.104	80.31
276.335	97.31
276.567	80.31
276.799	93.31
277.031	96.31
277.262	86.31
277.494	81.31
277.726	86.31
277.957	88.31
278.189	94.31
278.421	91.31
278.652	78.31
278.884	79.31
279.115	73.31
279.347	92.31
279.579	80.31
279.81	86.31
280.042	97.31
280.273	90.31
280.505	85.31
280.736	74.31
280.968	81.31
281.199	107.31
281.431	91.31
281.662	92.31
281.894	82.31
282.125	86.31
282.356	70.31
282.588	75.31
282.819	85.31
283.051	86.31
283.282	81.31
283.513	73.31
283.745	84.31
283.976	91.31
284.207	86.31
284.439	95.31
284.67	106.31
284.901	70.31
285.132	70.31
285.364	82.31
285.595	84.31
285.826	82.31
286.057	90.31
286.288	99.31
286.52	98.31
286.751	75.31
286.982	95.31
287.213	81.31
287.444	74.31
287.675	98.31
287.906	79.31
288.138	84.31
288.369	84.31
288.6	91.31
288.831	94.31
289.062	91.31
289.293	93.31
289.524	68.31
289.755	77.31
289.986	78.31
290.217	79.31
290.448	83.31
290.679	91.31
290.91	83.31
291.141	87.31
291.371	69.31
291.602	94.31
291.833	92.31
292.064	87.31
292.295	76.31
292.526	94.31
292.757	94.31
292.987	92.31
293.218	91.31
293.449	92.31
293.68	81.31
293.91	88.31
294.141	91.31
294.372	80.31
294.603	91.31
294.833	86.31
295.064	78.31
295.295	74.31
295.525	87.31
295.756	85.31
295.987	91.31
296.217	98.31
296.448	90.31
296.679	75.31
296.909	90.31
297.14	84.31
297.37	99.31
297.601	90.31
297.831	86.31
298.062	71.31
298.292	90.31
298.523	97.31
298.753	87.31
298.984	81.31
299.214	88.31
299.445	83.31
299.675	82.31
299.905	91.31
300.136	77.31
300.366	104.31
300.597	86.31
300.827	85.31
301.057	95.31
301.288	85.31
301.518	66.31
301.748	87.31
301.979	94.31
302.209	82.31
302.439	86.31
302.669	94.31
302.9	75.31
303.13	88.31
303.36	86.31
303.59	71.31
303.82	95.31
304.051	93.31
304.281	84.31
304.511	103.31
304.741	79.31
304.971	67.31
305.201	98.31
305.431	94.31
305.661	91.31
305.891	84.31
306.121	87.31
306.352	84.31
306.582	92.31
306.812	103.31
307.042	92.31
307.272	97.31
307.502	80.31
307.731	86.31
307.961	97.31
308.191	82.31
308.421	97.31
308.651	86.31
308.881	79.31
309.111	88.31
309.341	88.31
309.571	82.31
309.8	85.31
310.03	80.31
310.26	86.31
310.49	96.31
310.72	81.31
310.949	79.31
311.179	71.31
311.409	76.31
311.639	86.31
311.868	90.31
312.098	88.31
312.328	76.31
312.557	83.31
312.787	75.31
313.017	81.31
313.246	87.31
313.476	83.31
313.706	85.31
313.935	86.31
314.165	85.31
314.394	91.31
314.624	100.31
314.853	97.31
315.083	85.31
315.312	85.31
315.542	87.31
315.771	78.31
316.001	77.31
316.23	83.31
316.46	88.31
316.689	78.31
316.919	93.31
317.148	98.31
317.377	79.31
317.607	84.31
317.836	83.31
318.065	78.31
318.295	93.31
318.524	85.31
318.753	99.31
318.983	80.31
319.212	83.31
319.441	82.31
319.67	92.31
319.9	86.31
320.129	71.31
320.358	89.31
320.587	85.31
320.816	90.31
321.046	92.31
321.275	87.31
321.504	76.31
321.733	80.31
321.962	83.31
322.191	88.31
322.42	88.31
322.649	95.31
322.878	82.31
323.108	72.31
323.337	94.31
323.566	73.31
323.795	106.31
324.024	112.31
324.253	98.31
324.482	108.31
324.71	95.31
324.939	82.31
325.168	89.31
325.397	93.31
325.626	72.31
325.855	79.31
326.084	71.31
326.313	100.31
326.542	86.31
326.77	84.31
326.999	75.31
327.228	88.31
327.457	85.31
327.686	84.31
327.914	77.31
328.143	104.31
328.372	80.31
328.6	91.31
328.829	93.31
329.058	84.31
329.287	83.31
329.515	79.31
329.744	79.31
329.972	82.31
330.201	80.31
330.43	80.31
330.658	87.31
330.887	85.31
331.115	82.31
331.344	92.31
331.572	96.31
331.801	76.31
332.03	103.31
332.258	73.31
332.486	87.31
332.715	76.31
332.943	83.31
333.172	76.31
333.4	75.31
333.629	96.31
333.857	83.31
334.085	85.31
334.314	71.31
334.542	93.31
334.771	88.31
334.999	98.31
335.227	87.31
335.455	77.31
335.684	88.31
335.912	79.31
336.14	93.31
336.369	87.31
336.597	89.31
336.825	92.31
337.053	86.31
337.281	80.31
337.51	91.31
337.738	83.31
337.966	83.31
338.194	82.31
338.422	95.31
338.65	92.31
338.878	77.31
339.106	98.31
339.334	79.31
339.562	100.31
339.79	75.31
340.018	87.31
340.246	97.31
340.474	78.31
340.702	72.31
340.93	72.31
341.158	86.31
341.386	89.31
341.614	89.31
341.842	82.31
342.07	85.31
342.298	77.31
342.526	88.31
342.754	94.31
342.981	96.31
343.209	93.31
343.437	99.31
343.665	85.31
343.893	85.31
344.12	99.31
344.348	83.31
344.576	86.31
344.804	96.31
345.031	77.31
345.259	89.31
345.487	90.31
345.714	76.31
345.942	78.31
346.17	95.31
346.397	105.31
346.625	107.31
346.853	85.31
347.08	84.31
347.308	73.31
347.535	82.31
347.763	84.31
347.99	83.31
348.218	82.31
348.445	73.31
348.673	80.31
348.9	96.31
349.128	84.31
349.355	91.31
349.583	78.31
349.81	83.31
350.037	91.31
350.265	71.31
350.492	86.31
350.72	78.31
350.947	88.31
351.174	90.31
351.402	100.31
351.629	90.31
351.856	91.31
352.083	87.31
352.311	93.31
352.538	85.31
352.765	83.31
352.992	71.31
353.22	82.31
353.447	84.31
353.674	77.31
353.901	82.31
354.128	74.31
354.355	77.31
354.583	78.31
354.81	86.31
355.037	93.31
355.264	87.31
355.491	87.31
355.718	85.31
355.945	77.31
356.172	87.31
356.399	74.31
356.626	70.31
356.853	77.31
357.08	88.31
357.307	86.31
357.534	70.31
357.761	90.31
357.988	83.31
358.215	82.31
358.441	75.31
358.668	79.31
358.895	87.31
359.122	92.31
359.349	85.31
359.576	89.31
359.802	100.31
360.029	79.31
360.256	78.31
360.483	84.31
360.709	82.31
360.936	81.31
361.163	76.31
361.39	74.31
361.616	78.31
361.843	86.31
362.07	84.31
362.296	87.31
362.523	88.31
362.749	91.31
362.976	90.31
363.203	95.31
363.429	88.31
363.656	78.31
363.882	78.31
364.109	89.31
364.335	94.31
364.562	75.31
364.788	74.31
365.015	88.31
365.241	82.31
365.468	91.31
365.694	80.31
365.92	80.31
366.147	86.31
366.373	83.31
366.599	87.31
366.826	75.31
367.052	92.31
367.278	83.31
367.505	89.31
367.731	86.31
367.957	84.31
368.184	73.31
368.41	95.31
368.636	87.31
368.862	84.31
369.089	75.31
369.315	82.31
369.541	77.31
369.767	87.31
369.993	76.31
370.219	82.31
370.445	76.31
370.672	72.31
370.898	74.31
371.124	72.31
371.35	87.31
371.576	82.31
371.802	84.31
372.028	88.31
372.254	87.31
372.48	68.31
372.706	83.31
372.932	88.31
373.158	89.31
373.384	78.31
373.61	93.31
373.835	81.31
374.061	78.31
374.287	75.31
374.513	78.31
374.739	82.31
374.965	89.31
375.191	78.31
375.416	89.31
375.642	85.31
375.868	80.31
376.094	81.31
376.319	73.31
376.545	85.31
376.771	80.31
376.997	80.31
377.222	90.31
377.448	90.31
377.674	91.31
377.899	86.31
378.125	87.31
378.35	99.31
378.576	85.31
378.802	81.31
379.027	79.31
379.253	79.31
379.478	75.31
379.704	75.31
379.929	80.31
380.155	90.31
380.38	69.31
380.606	89.31
380.831	78.31
381.057	90.31
381.282	99.31
381.507	86.31
381.733	98.31
381.958	89.31
382.184	85.31
382.409	77.31
382.634	73.31
382.86	94.31
383.085	77.31
383.31	81.31
383.535	80.31
383.761	85.31
383.986	71.31
384.211	72.31
384.436	77.31
384.662	85.31
384.887	79.31
385.112	80.31
385.337	80.31
385.562	86.31
385.787	80.31
386.013	90.31
386.238	86.31
386.463	80.31
386.688	73.31
386.913	87.31
387.138	85.31
387.363	77.31
387.588	79.31
387.813	87.31
388.038	88.31
388.263	78.31
388.488	71.31
388.713	84.31
388.938	94.31
389.163	89.31
389.387	68.31
389.612	106.31
389.837	76.31
390.062	74.31
390.287	93.31
390.512	76.31
390.736	92.31
390.961	91.31
391.186	85.31
391.411	96.31
391.636	93.31
391.86	99.31
392.085	79.31
392.31	97.31
392.534	93.31
392.759	82.31
392.984	92.31
393.208	88.31
393.433	98.31
393.658	110.31
393.882	75.31
394.107	67.31
394.331	83.31
394.556	89.31
394.78	78.31
395.005	88.31
395.229	79.31
395.454	98.31
395.678	93.31
395.903	78.31
396.127	86.31
396.352	86.31
396.576	83.31
396.801	87.31
397.025	77.31
397.249	87.31
397.474	76.31
397.698	85.31
397.922	84.31
398.147	78.31
398.371	84.31
398.595	91.31
398.82	96.31
399.044	92.31
399.268	85.31
399.492	89.31
399.717	83.31
399.941	94.31
400.165	75.31
400.389	82.31
400.613	84.31
400.837	87.31
401.062	84.31
401.286	92.31
401.51	88.31
401.734	88.31
401.958	84.31
402.182	90.31
402.406	75.31
402.63	89.31
402.854	80.31
403.078	93.31
403.302	83.31
403.526	84.31
403.75	84.31
403.974	80.31
404.198	86.31
404.422	91.31
404.645	88.31
404.869	88.31
405.093	86.31
405.317	80.31
405.541	94.31
405.765	93.31
405.988	87.31
406.212	84.31
406.436	84.31
406.66	86.31
406.883	83.31
407.107	97.31
407.331	79.31
407.555	99.31
407.778	84.31
408.002	84.31
408.226	79.31
408.449	73.31
408.673	85.31
408.896	76.31
409.12	80.31
409.344	92.31
409.567	100.31
409.791	86.31
410.014	70.31
410.238	91.31
410.461	94.31
410.685	74.31
410.908	80.31
411.132	83.31
411.355	87.31
411.578	81.31
411.802	76.31
412.025	83.31
412.249	79.31
412.472	91.31
412.695	94.31
412.919	81.31
413.142	87.31
413.365	93.31
413.589	96.31
413.812	87.31
414.035	82.31
414.258	93.31
414.482	84.31
414.705	75.31
414.928	87.31
415.151	73.31
415.374	91.31
415.597	94.31
415.821	82.31
416.044	91.31
416.267	71.31
416.49	79.31
416.713	90.31
416.936	91.31
417.159	91.31
417.382	93.31
417.605	83.31
417.828	103.31
418.051	93.31
418.274	86.31
418.497	85.31
418.72	80.31
418.943	90.31
419.166	83.31
419.389	98.31
419.611	76.31
419.834	84.31
420.057	101.31
420.28	76.31
420.503	82.31
420.726	78.31
420.948	83.31
421.171	78.31
421.394	97.31
421.617	102.31
421.839	107.31
422.062	87.31
422.285	86.31
422.507	80.31
422.73	87.31
422.953	110.31
423.175	100.31
423.398	102.31
423.621	74.31
423.843	86.31
424.066	90.31
424.288	98.31
424.511	96.31
424.733	91.31
424.956	105.31
425.178	100.31
425.401	81.31
425.623	87.31
425.846	92.31
426.068	71.31
426.291	89.31
426.513	92.31
426.735	89.31
426.958	99.31
427.18	102.31
427.402	98.31
427.625	85.31
427.847	76.31
428.069	92.31
428.292	94.31
428.514	83.31
428.736	87.31
428.958	79.31
429.181	86.31
429.403	84.31
429.625	85.31
429.847	104.31
430.069	83.31
430.292	92.31
430.514	80.31
430.736	83.31
430.958	104.31
431.18	93.31
431.402	63.31
431.624	90.31
431.846	69.31
432.068	81.31
432.29	70.31
432.512	91.31
432.734	94.31
432.956	104.31
433.178	72.31
433.4	77.31
433.622	96.31
433.844	86.31
434.066	91.31
434.287	95.31
434.509	78.31
434.731	83.31
434.953	73.31
435.175	102.31
435.397	99.31
435.618	84.31
435.84	86.31
436.062	91.31
436.284	87.31
436.505	78.31
436.727	82.31
436.949	93.31
437.17	102.31
437.392	74.31
437.614	86.31
437.835	88.31
438.057	101.31
438.278	80.31
438.5	80.31
438.721	89.31
438.943	98.31
439.165	107.31
439.386	92.31
439.608	95.31
439.829	92.31
440.05	90.31
440.272	101.31
440.493	88.31
440.715	111.31
440.936	91.31
441.158	101.31
441.379	85.31
441.6	87.31
441.822	91.31
442.043	98.31
442.264	92.31
442.486	79.31
442.707	101.31
442.928	92.31
443.149	80.31
443.371	81.31
443.592	95.31
443.813	88.31
444.034	94.31
444.255	91.31
444.476	83.31
444.698	105.31
444.919	99.31
445.14	231.31
445.361	142.31
445.582	91.31
445.803	86.31
446.024	104.31
446.245	103.31
446.466	96.31
446.687	103.31
446.908	97.31
447.129	92.31
447.35	82.31
447.571	84.31
447.792	85.31
448.013	101.31
448.234	74.31
448.455	96.31
448.675	89.31
448.896	87.31
449.117	89.31
449.338	83.31
449.559	89.31
449.779	85.31
450	90.31
450.221	88.31
450.442	96.31
450.662	88.31
450.883	86.31
451.104	94.31
451.324	103.31
451.545	100.31
451.766	73.31
451.986	90.31
452.207	87.31
452.428	99.31
452.648	95.31
452.869	95.31
453.089	92.31
453.31	87.31
453.53	84.31
453.751	74.31
453.971	86.31
454.192	86.31
454.412	92.31
454.633	75.31
454.853	92.31
455.073	87.31
455.294	79.31
455.514	98.31
455.734	79.31
455.955	79.31
456.175	85.31
456.395	92.31
456.616	92.31
456.836	94.31
457.056	90.31
457.276	78.31
457.497	84.31
457.717	79.31
457.937	88.31
458.157	85.31
458.377	84.31
458.598	83.31
458.818	74.31
459.038	81.31
459.258	81.31
459.478	92.31
459.698	75.31
459.918	86.31
460.138	94.31
460.358	86.31
460.578	82.31
460.798	103.31
461.018	75.31
461.238	67.31
461.458	84.31
461.678	86.31
461.898	84.31
462.118	99.31
462.338	72.31
462.558	92.31
462.777	79.31
462.997	86.31
463.217	84.31
463.437	86.31
463.657	81.31
463.876	88.31
464.096	84.31
464.316	84.31
464.536	72.31
464.755	89.31
464.975	94.31
465.195	80.31
465.414	92.31
465.634	84.31
465.854	92.31
466.073	90.31
466.293	89.31
466.512	82.31
466.732	89.31
466.951	81.31
467.171	92.31
467.391	98.31
467.61	111.31
467.829	92.31
468.049	103.31
468.268	82.31
468.488	93.31
468.707	84.31
468.927	99.31
469.146	90.31
469.365	106.31
469.585	98.31
469.804	104.31
470.023	94.31
470.243	94.31
470.462	95.31
470.681	113.31
470.901	106.31
471.12	110.31
471.339	96.31
471.558	88.31
471.777	87.31
471.997	86.31
472.216	87.31
472.435	80.31
472.654	78.31
472.873	85.31
473.092	96.31
473.311	97.31
473.53	87.31
473.749	96.31
473.968	85.31
474.187	97.31
474.406	88.31
474.625	86.31
474.844	100.31
475.063	94.31
475.282	82.31
475.501	75.31
475.72	105.31
475.939	88.31
476.158	82.31
476.377	86.31
476.596	94.31
476.814	78.31
477.033	75.31
477.252	86.31
477.471	93.31
477.69	96.31
477.908	93.31
478.127	98.31
478.346	82.31
478.564	97.31
478.783	107.31
479.002	102.31
479.22	88.31
479.439	95.31
479.658	95.31
479.876	80.31
480.095	96.31
480.313	83.31
480.532	98.31
480.751	83.31
480.969	76.31
481.188	76.31
481.406	75.31
481.624	96.31
481.843	102.31
482.061	92.31
482.28	86.31
482.498	84.31
482.717	95.31
482.935	84.31
483.153	100.31
483.372	91.31
483.59	95.31
483.808	91.31
484.027	94.31
484.245	76.31
484.463	90.31
484.681	101.31
484.9	95.31
485.118	93.31
485.336	99.31
485.554	88.31
485.772	107.31
485.99	92.31
486.209	78.31
486.427	96.31
486.645	85.31
486.863	83.31
487.081	70.31
487.299	78.31
487.517	94.31
487.735	88.31
487.953	104.31
488.171	102.31
488.389	87.31
488.607	93.31
488.825	82.31
489.043	92.31
489.261	103.31
489.479	109.31
489.696	104.31
489.914	97.31
490.132	85.31
490.35	101.31
490.568	99.31
490.786	106.31
491.003	105.31
491.221	97.31
491.439	118.31
491.657	100.31
491.874	118.31
492.092	100.31
492.31	111.31
492.527	98.31
492.745	98.31
492.963	96.31
493.18	95.31
493.398	102.31
493.615	99.31
493.833	110.31
494.05	105.31
494.268	91.31
494.485	99.31
494.703	103.31
494.92	119.31
495.138	111.31
495.355	95.31
495.573	116.31
495.79	96.31
496.008	101.31
496.225	99.31
496.442	104.31
496.66	112.31
496.877	104.31
497.094	107.31
497.312	99.31
497.529	93.31
497.746	96.31
497.963	92.31
498.181	74.31
498.398	89.31
498.615	92.31
498.832	100.31
499.049	96.31
499.267	96.31
499.484	78.31
499.701	86.31
499.918	95.31
500.135	87.31
500.352	88.31
500.569	88.31
500.786	83.31
501.003	104.31
501.22	104.31
501.437	105.31
501.654	98.31
501.871	86.31
502.088	98.31
502.305	95.31
502.522	94.31
502.739	91.31
502.956	94.31
503.172	103.31
503.389	72.31
503.606	93.31
503.823	101.31
504.04	94.31
504.256	99.31
504.473	87.31
504.69	83.31
504.907	73.31
505.123	82.31
505.34	105.31
505.557	93.31
505.773	91.31
505.99	94.31
506.207	88.31
506.423	103.31
506.64	98.31
506.856	91.31
507.073	84.31
507.289	96.31
507.506	82.31
507.722	78.31
507.939	88.31
508.155	93.31
508.372	94.31
508.588	83.31
508.805	95.31
509.021	101.31
509.238	90.31
509.454	95.31
509.67	101.31
509.887	80.31
510.103	86.31
510.319	88.31
510.536	88.31
510.752	90.31
510.968	79.31
511.184	78.31
511.401	90.31
511.617	87.31
511.833	91.31
512.049	93.31
512.265	101.31
512.481	92.31
512.698	90.31
512.914	84.31
513.13	93.31
513.346	96.31
513.562	78.31
513.778	82.31
513.994	80.31
514.21	84.31
514.426	94.31
514.642	98.31
514.858	96.31
515.074	93.31
515.29	87.31
515.506	89.31
515.721	90.31
515.937	87.31
516.153	88.31
516.369	90.31
516.585	71.31
516.801	93.31
517.016	83.31
517.232	97.31
517.448	83.31
517.664	83.31
517.879	89.31
518.095	73.31
518.311	98.31
518.527	96.31
518.742	92.31
518.958	78.31
519.173	84.31
519.389	95.31
519.605	73.31
519.82	91.31
520.036	87.31
520.251	80.31
520.467	84.31
520.682	75.31
520.898	81.31
521.113	94.31
521.329	90.31
521.544	82.31
521.76	79.31
521.975	95.31
522.19	71.31
522.406	93.31
522.621	92.31
522.836	97.31
523.052	95.31
523.267	83.31
523.482	83.31
523.698	99.31
523.913	92.31
524.128	92.31
524.343	91.31
524.559	99.31
524.774	83.31
524.989	88.31
525.204	88.31
525.419	83.31
525.634	86.31
525.849	108.31
526.064	92.31
526.28	93.31
526.495	86.31
526.71	75.31
526.925	78.31
527.14	86.31
527.355	79.31
527.57	96.31
527.785	89.31
527.999	84.31
528.214	80.31
528.429	106.31
528.644	100.31
528.859	95.31
529.074	108.31
529.289	93.31
529.503	90.31
529.718	92.31
529.933	96.31
530.148	92.31
530.363	77.31
530.577	87.31
530.792	82.31
531.007	80.31
531.221	86.31
531.436	85.31
531.651	85.31
531.865	87.31
532.08	86.31
532.295	76.31
532.509	92.31
532.724	92.31
532.938	83.31
533.153	99.31
533.367	92.31
533.582	85.31
533.796	90.31
534.011	80.31
534.225	82.31
534.44	84.31
534.654	96.31
534.868	89.31
535.083	90.31
535.297	91.31
535.511	82.31
535.726	103.31
535.94	86.31
536.154	93.31
536.369	93.31
536.583	94.31
536.797	88.31
537.011	84.31
537.225	97.31
537.44	75.31
537.654	91.31
537.868	98.31
538.082	82.31
538.296	89.31
538.51	96.31
538.724	95.31
538.938	91.31
539.153	86.31
539.367	87.31
539.581	96.31
539.795	79.31
540.009	99.31
540.222	81.31
540.436	91.31
540.65	99.31
540.864	119.31
541.078	95.31
541.292	96.31
541.506	94.31
541.72	84.31
541.934	101.31
542.147	119.31
542.361	120.31
542.575	96.31
542.789	98.31
543.002	90.31
543.216	87.31
543.43	89.31
543.644	90.31
543.857	81.31
544.071	98.31
544.285	104.31
544.498	101.31
544.712	94.31
544.925	98.31
545.139	109.31
545.352	107.31
545.566	97.31
545.779	94.31
545.993	114.31
546.206	84.31
546.42	118.31
546.633	101.31
546.847	92.31
547.06	87.31
547.274	107.31
547.487	99.31
547.7	104.31
547.914	107.31
548.127	100.31
548.34	97.31
548.554	91.31
548.767	94.31
548.98	99.31
549.193	97.31
549.407	103.31
549.62	103.31
549.833	96.31
550.046	98.31
550.259	100.31
550.473	107.31
550.686	108.31
550.899	101.31
551.112	104.31
551.325	96.31
551.538	99.31
551.751	95.31
551.964	74.31
552.177	103.31
552.39	93.31
552.603	87.31
552.816	104.31
553.029	110.31
553.242	109.31
553.455	95.31
553.667	96.31
553.88	102.31
554.093	89.31
554.306	94.31
554.519	91.31
554.732	108.31
554.944	82.31
555.157	93.31
555.37	95.31
555.583	100.31
555.795	95.31
556.008	106.31
556.221	86.31
556.433	107.31
556.646	103.31
556.859	99.31
557.071	107.31
557.284	95.31
557.496	83.31
557.709	104.31
557.921	95.31
558.134	99.31
558.346	104.31
558.559	98.31
558.771	98.31
558.984	90.31
559.196	85.31
559.409	90.31
559.621	91.31
559.833	103.31
560.046	108.31
560.258	114.31
560.47	90.31
560.683	87.31
560.895	95.31
561.107	103.31
561.32	88.31
561.532	94.31
561.744	97.31
561.956	97.31
562.168	90.31
562.381	95.31
562.593	90.31
562.805	86.31
563.017	79.31
563.229	101.31
563.441	100.31
563.653	94.31
563.865	107.31
564.077	104.31
564.289	92.31
564.501	102.31
564.713	113.31
564.925	80.31
565.137	78.31
565.349	95.31
565.561	95.31
565.773	89.31
565.985	95.31
566.197	89.31
566.408	90.31
566.62	105.31
566.832	77.31
567.044	81.31
567.255	87.31
567.467	85.31
567.679	95.31
567.891	107.31
568.102	71.31
568.314	76.31
568.526	88.31
568.737	85.31
568.949	85.31
569.161	82.31
569.372	82.31
569.584	71.31
569.795	78.31
570.007	90.31
570.218	85.31
570.43	90.31
570.641	88.31
570.853	85.31
571.064	84.31
571.276	95.31
571.487	89.31
571.698	95.31
571.91	100.31
572.121	87.31
572.333	84.31
572.544	90.31
572.755	86.31
572.966	88.31
573.178	80.31
573.389	87.31
573.6	72.31
573.811	75.31
574.023	87.31
574.234	102.31
574.445	91.31
574.656	82.31
574.867	87.31
575.078	93.31
575.289	100.31
575.501	89.31
575.712	93.31
575.923	94.31
576.134	101.31
576.345	87.31
576.556	77.31
576.767	85.31
576.978	89.31
577.188	86.31
577.399	98.31
577.61	70.31
577.821	91.31
578.032	92.31
578.243	86.31
578.454	94.31
578.665	87.31
578.875	82.31
579.086	89.31
579.297	86.31
579.508	75.31
579.718	78.31
579.929	89.31
580.14	82.31
580.35	72.31
580.561	92.31
580.772	89.31
580.982	85.31
581.193	105.31
581.403	98.31
581.614	74.31
581.825	85.31
582.035	86.31
582.246	91.31
582.456	88.31
582.667	88.31
582.877	80.31
583.087	88.31
583.298	89.31
583.508	73.31
583.719	91.31
583.929	99.31
584.139	94.31
584.35	97.31
584.56	86.31
584.77	87.31
584.981	91.31
585.191	92.31
585.401	91.31
585.611	81.31
585.821	90.31
586.032	90.31
586.242	91.31
586.452	74.31
586.662	99.31
586.872	81.31
587.082	88.31
587.292	73.31
587.502	77.31
587.713	78.31
587.923	78.31
588.133	82.31
588.343	98.31
588.553	84.31
588.762	84.31
588.972	101.31
589.182	94.31
589.392	94.31
589.602	84.31
589.812	68.31
590.022	86.31
590.232	87.31
590.441	97.31
590.651	80.31
590.861	79.31
591.071	76.31
591.281	83.31
591.49	91.31
591.7	74.31
591.91	87.31
592.119	78.31
592.329	86.31
592.539	72.31
592.748	83.31
592.958	75.31
593.167	91.31
593.377	87.31
593.587	87.31
593.796	77.31
594.006	87.31
594.215	82.31
594.424	91.31
594.634	83.31
594.843	74.31
595.053	84.31
595.262	76.31
595.472	85.31
595.681	90.31
595.89	90.31
596.1	90.31
596.309	87.31
596.518	91.31
596.727	85.31
596.937	97.31
597.146	95.31
597.355	74.31
597.564	78.31
597.774	95.31
597.983	84.31
598.192	75.31
598.401	89.31
598.61	88.31
598.819	82.31
599.028	79.31
599.237	99.31
599.446	94.31
599.655	81.31
599.864	109.31
600.073	77.31
600.282	91.31
600.491	86.31
600.7	86.31
600.909	82.31
601.118	84.31
601.327	88.31
601.536	88.31
601.745	88.31
601.953	96.31
602.162	88.31
602.371	108.31
602.58	84.31
602.789	94.31
602.997	93.31
603.206	90.31
603.415	84.31
603.623	83.31
603.832	84.31
604.041	94.31
604.249	87.31
604.458	75.31
604.666	82.31
604.875	93.31
605.084	94.31
605.292	92.31
605.501	99.31
605.709	73.31
605.918	100.31
606.126	95.31
606.334	89.31
606.543	103.31
606.751	88.31
606.96	98.31
607.168	92.31
607.376	97.31
607.585	83.31
607.793	94.31
608.001	81.31
608.21	92.31
608.418	106.31
608.626	95.31
608.834	93.31
609.043	94.31
609.251	86.31
609.459	87.31
609.667	98.31
609.875	99.31
610.083	87.31
610.291	92.31
610.499	103.31
610.707	105.31
610.916	91.31
611.124	94.31
611.332	85.31
611.54	96.31
611.748	86.31
611.955	84.31
612.163	77.31
612.371	98.31
612.579	91.31
612.787	101.31
612.995	81.31
613.203	97.31
613.411	99.31
613.618	98.31
613.826	83.31
614.034	83.31
614.242	96.31
614.449	88.31
614.657	94.31
614.865	86.31
615.072	80.31
615.28	96.31
615.488	85.31
615.695	101.31
615.903	104.31
616.111	90.31
616.318	91.31
616.526	89.31
616.733	88.31
616.941	95.31
617.148	98.31
617.356	92.31
617.563	90.31
617.771	93.31
617.978	85.31
618.185	87.31
618.393	94.31
618.6	78.31
618.807	90.31
619.015	93.31
619.222	86.31
619.429	92.31
619.637	97.31
619.844	87.31
620.051	96.31
620.258	101.31
620.466	102.31
620.673	94.31
620.88	90.31
621.087	103.31
621.294	78.31
621.501	101.31
621.708	78.31
621.915	91.31
622.122	109.31
622.329	90.31
622.536	68.31
622.743	87.31
622.95	92.31
623.157	78.31
623.364	80.31
623.571	101.31
623.778	83.31
623.985	87.31
624.192	97.31
624.399	84.31
624.606	92.31
624.812	89.31
625.019	87.31
625.226	86.31
625.433	81.31
625.639	86.31
625.846	82.31
626.053	75.31
626.259	75.31
626.466	98.31
626.673	99.31
626.879	77.31
627.086	91.31
627.293	95.31
627.499	84.31
627.706	84.31
627.912	89.31
628.119	88.31
628.325	90.31
628.532	97.31
628.738	95.31
628.945	85.31
629.151	93.31
629.357	100.31
629.564	68.31
629.77	84.31
629.976	98.31
630.183	78.31
630.389	90.31
630.595	86.31
630.802	93.31
631.008	95.31
631.214	92.31
631.42	95.31
631.627	99.31
631.833	87.31
632.039	90.31
632.245	76.31
632.451	80.31
632.657	79.31
632.863	99.31
633.069	91.31
633.275	94.31
633.481	91.31
633.688	96.31
633.893	94.31
634.099	87.31
634.305	88.31
634.511	85.31
634.717	90.31
634.923	82.31
635.129	84.31
635.335	93.31
635.541	88.31
635.747	87.31
635.952	78.31
636.158	91.31
636.364	89.31
636.57	74.31
636.775	87.31
636.981	81.31
637.187	98.31
637.392	73.31
637.598	88.31
637.804	85.31
638.009	93.31
638.215	95.31
638.421	99.31
638.626	86.31
638.832	91.31
639.037	83.31
639.243	96.31
639.448	79.31
639.654	102.31
639.859	89.31
640.065	89.31
640.27	91.31
640.475	88.31
640.681	92.31
640.886	84.31
641.091	82.31
641.297	72.31
641.502	100.31
641.707	89.31
641.913	90.31
642.118	76.31
642.323	59.31
642.528	88.31
642.733	87.31
642.939	72.31
643.144	95.31
643.349	88.31
643.554	93.31
643.759	81.31
643.964	79.31
644.169	94.31
644.374	90.31
644.579	87.31
644.784	84.31
644.989	75.31
645.194	91.31
645.399	89.31
645.604	96.31
645.809	97.31
646.014	71.31
646.219	96.31
646.423	88.31
646.628	84.31
646.833	84.31
647.038	96.31
647.243	78.31
647.447	84.31
647.652	101.31
647.857	108.31
648.062	82.31
648.266	94.31
648.471	81.31
648.676	91.31
648.88	91.31
649.085	84.31
649.289	81.31
649.494	94.31
649.698	79.31
649.903	66.31
650.107	97.31
650.312	98.31
650.516	89.31
650.721	86.31
650.925	75.31
651.13	90.31
651.334	79.31
651.539	92.31
651.743	81.31
651.947	88.31
652.152	94.31
652.356	80.31
652.56	87.31
652.764	86.31
652.969	81.31
653.173	90.31
653.377	80.31
653.581	90.31
653.785	76.31
653.99	83.31
654.194	77.31
654.398	94.31
654.602	94.31
654.806	81.31
655.01	100.31
655.214	90.31
655.418	79.31
655.622	90.31
655.826	83.31
656.03	83.31
656.234	92.31
656.438	91.31
656.642	90.31
656.846	85.31
657.049	79.31
657.253	83.31
657.457	85.31
657.661	76.31
657.865	79.31
658.068	76.31
658.272	84.31
658.476	73.31
658.68	84.31
658.883	76.31
659.087	88.31
659.291	84.31
659.494	96.31
659.698	68.31
659.901	74.31
660.105	80.31
660.309	83.31
660.512	83.31
660.716	88.31
660.919	93.31
661.123	80.31
661.326	87.31
661.53	95.31
661.733	84.31
661.936	89.31
662.14	79.31
662.343	89.31
662.546	86.31
662.75	74.31
662.953	83.31
663.156	82.31
663.36	91.31
663.563	80.31
663.766	76.31
663.969	77.31
664.173	73.31
664.376	86.31
664.579	77.31
664.782	72.31
664.985	85.31
665.188	95.31
665.391	89.31
665.594	80.31
665.797	71.31
666	92.31
666.203	99.31
666.406	70.31
666.609	102.31
666.812	88.31
667.015	73.31
667.218	74.31
667.421	80.31
667.624	99.31
667.827	73.31
668.03	94.31
668.232	69.31
668.435	75.31
668.638	85.31
668.841	90.31
669.043	78.31
669.246	86.31
669.449	94.31
669.651	84.31
669.854	83.31
670.057	77.31
670.259	91.31
670.462	86.31
670.665	77.31
670.867	82.31
671.07	90.31
671.272	88.31
671.475	80.31
671.677	76.31
671.88	83.31
672.082	82.31
672.284	99.31
672.487	90.31
672.689	79.31
672.892	94.31
