Data from Zn(NO3)2Standard.Agarose3%.GreenCap.LampEnergy10E.O_HRD10591_15-07-36-945.txt Node
Date: Mon Jul 22 15:07:36 EDT 2019
User: cochatt
Spectrometer: HR+D1059
Trigger mode: 1
Integration Time (sec): 1.000000E-1
Scans to average: 1
Electric dark correction enabled: true
Nonlinearity correction enabled: false
Boxcar width: 0
XAxis mode: Wavelengths
Number of Pixels in Spectrum: 2048
>>>>>Begin Spectral Data<<<<<
223.165	-17.12
223.4	-17.12
223.635	-17.12
223.869	-22.12
224.104	-12.12
224.338	-13.12
224.573	-4.12
224.808	-16.12
225.042	-3.12
225.277	-9.12
225.511	-3.12
225.746	6.88
225.98	5.88
226.215	9.88
226.449	15.88
226.683	14.88
226.918	19.88
227.152	26.88
227.387	37.88
227.621	52.88
227.856	45.88
228.09	62.88
228.324	49.88
228.559	67.88
228.793	54.88
229.027	57.88
229.262	73.88
229.496	75.88
229.73	61.88
229.964	83.88
230.199	75.88
230.433	75.88
230.667	83.88
230.901	88.88
231.136	78.88
231.37	81.88
231.604	70.88
231.838	88.88
232.072	85.88
232.306	89.88
232.541	99.88
232.775	102.88
233.009	79.88
233.243	90.88
233.477	87.88
233.711	102.88
233.945	81.88
234.179	77.88
234.413	93.88
234.647	85.88
234.881	91.88
235.115	79.88
235.349	84.88
235.583	77.88
235.817	85.88
236.051	73.88
236.285	90.88
236.519	75.88
236.753	79.88
236.987	73.88
237.221	76.88
237.455	80.88
237.689	79.88
237.922	79.88
238.156	71.88
238.39	79.88
238.624	78.88
238.858	76.88
239.091	83.88
239.325	82.88
239.559	85.88
239.793	78.88
240.027	85.88
240.26	79.88
240.494	88.88
240.728	68.88
240.961	85.88
241.195	70.88
241.429	84.88
241.662	73.88
241.896	92.88
242.13	81.88
242.363	81.88
242.597	90.88
242.83	88.88
243.064	75.88
243.298	76.88
243.531	70.88
243.765	66.88
243.998	74.88
244.232	89.88
244.465	77.88
244.699	75.88
244.932	90.88
245.166	85.88
245.399	89.88
245.633	82.88
245.866	94.88
246.099	88.88
246.333	85.88
246.566	73.88
246.8	72.88
247.033	89.88
247.266	86.88
247.5	76.88
247.733	82.88
247.966	73.88
248.2	94.88
248.433	73.88
248.666	85.88
248.899	79.88
249.133	80.88
249.366	90.88
249.599	74.88
249.832	83.88
250.066	83.88
250.299	85.88
250.532	77.88
250.765	80.88
250.998	77.88
251.231	84.88
251.465	77.88
251.698	83.88
251.931	85.88
252.164	87.88
252.397	65.88
252.63	87.88
252.863	77.88
253.096	72.88
253.329	90.88
253.562	88.88
253.795	93.88
254.028	92.88
254.261	78.88
254.494	82.88
254.727	85.88
254.96	71.88
255.193	66.88
255.426	90.88
255.659	75.88
255.892	89.88
256.124	81.88
256.357	85.88
256.59	80.88
256.823	73.88
257.056	72.88
257.289	84.88
257.521	86.88
257.754	84.88
257.987	89.88
258.22	84.88
258.452	78.88
258.685	79.88
258.918	83.88
259.151	79.88
259.383	80.88
259.616	87.88
259.849	91.88
260.081	96.88
260.314	86.88
260.547	83.88
260.779	77.88
261.012	79.88
261.244	68.88
261.477	81.88
261.71	77.88
261.942	73.88
262.175	102.88
262.407	74.88
262.64	79.88
262.872	81.88
263.105	92.88
263.337	92.88
263.57	83.88
263.802	84.88
264.035	90.88
264.267	77.88
264.499	97.88
264.732	79.88
264.964	79.88
265.197	96.88
265.429	89.88
265.661	83.88
265.894	78.88
266.126	86.88
266.358	88.88
266.591	81.88
266.823	74.88
267.055	81.88
267.287	87.88
267.52	99.88
267.752	94.88
267.984	92.88
268.216	80.88
268.448	95.88
268.681	89.88
268.913	79.88
269.145	82.88
269.377	77.88
269.609	75.88
269.841	79.88
270.073	79.88
270.306	79.88
270.538	83.88
270.77	73.88
271.002	83.88
271.234	99.88
271.466	88.88
271.698	70.88
271.93	81.88
272.162	87.88
272.394	78.88
272.626	83.88
272.858	93.88
273.09	98.88
273.322	85.88
273.553	95.88
273.785	89.88
274.017	83.88
274.249	81.88
274.481	92.88
274.713	85.88
274.945	79.88
275.176	81.88
275.408	85.88
275.64	86.88
275.872	86.88
276.104	76.88
276.335	85.88
276.567	79.88
276.799	84.88
277.031	89.88
277.262	89.88
277.494	89.88
277.726	77.88
277.957	74.88
278.189	93.88
278.421	89.88
278.652	99.88
278.884	100.88
279.115	84.88
279.347	95.88
279.579	89.88
279.81	94.88
280.042	73.88
280.273	73.88
280.505	81.88
280.736	82.88
280.968	82.88
281.199	78.88
281.431	101.88
281.662	104.88
281.894	94.88
282.125	104.88
282.356	102.88
282.588	86.88
282.819	94.88
283.051	83.88
283.282	85.88
283.513	87.88
283.745	78.88
283.976	87.88
284.207	90.88
284.439	100.88
284.67	98.88
284.901	94.88
285.132	84.88
285.364	81.88
285.595	85.88
285.826	82.88
286.057	97.88
286.288	91.88
286.52	89.88
286.751	82.88
286.982	88.88
287.213	72.88
287.444	89.88
287.675	76.88
287.906	79.88
288.138	96.88
288.369	76.88
288.6	100.88
288.831	96.88
289.062	87.88
289.293	71.88
289.524	87.88
289.755	87.88
289.986	85.88
290.217	93.88
290.448	82.88
290.679	71.88
290.91	97.88
291.141	84.88
291.371	91.88
291.602	97.88
291.833	77.88
292.064	81.88
292.295	81.88
292.526	76.88
292.757	89.88
292.987	83.88
293.218	83.88
293.449	90.88
293.68	92.88
293.91	80.88
294.141	86.88
294.372	93.88
294.603	89.88
294.833	85.88
295.064	101.88
295.295	100.88
295.525	94.88
295.756	75.88
295.987	86.88
296.217	76.88
296.448	88.88
296.679	89.88
296.909	76.88
297.14	82.88
297.37	87.88
297.601	78.88
297.831	96.88
298.062	85.88
298.292	86.88
298.523	100.88
298.753	90.88
298.984	89.88
299.214	101.88
299.445	86.88
299.675	89.88
299.905	79.88
300.136	99.88
300.366	73.88
300.597	85.88
300.827	78.88
301.057	95.88
301.288	80.88
301.518	84.88
301.748	93.88
301.979	94.88
302.209	93.88
302.439	95.88
302.669	90.88
302.9	83.88
303.13	81.88
303.36	85.88
303.59	96.88
303.82	87.88
304.051	82.88
304.281	100.88
304.511	82.88
304.741	92.88
304.971	96.88
305.201	90.88
305.431	94.88
305.661	92.88
305.891	92.88
306.121	87.88
306.352	91.88
306.582	79.88
306.812	98.88
307.042	96.88
307.272	80.88
307.502	98.88
307.731	93.88
307.961	75.88
308.191	73.88
308.421	92.88
308.651	79.88
308.881	91.88
309.111	91.88
309.341	77.88
309.571	96.88
309.8	93.88
310.03	83.88
310.26	79.88
310.49	83.88
310.72	82.88
310.949	83.88
311.179	93.88
311.409	89.88
311.639	87.88
311.868	96.88
312.098	98.88
312.328	79.88
312.557	97.88
312.787	53.88
313.017	87.88
313.246	85.88
313.476	95.88
313.706	94.88
313.935	93.88
314.165	95.88
314.394	96.88
314.624	88.88
314.853	93.88
315.083	81.88
315.312	79.88
315.542	85.88
315.771	77.88
316.001	100.88
316.23	93.88
316.46	87.88
316.689	77.88
316.919	83.88
317.148	80.88
317.377	97.88
317.607	97.88
317.836	99.88
318.065	94.88
318.295	85.88
318.524	92.88
318.753	81.88
318.983	78.88
319.212	74.88
319.441	76.88
319.67	78.88
319.9	83.88
320.129	88.88
320.358	89.88
320.587	81.88
320.816	99.88
321.046	60.88
321.275	95.88
321.504	86.88
321.733	82.88
321.962	93.88
322.191	91.88
322.42	96.88
322.649	89.88
322.878	93.88
323.108	93.88
323.337	84.88
323.566	90.88
323.795	83.88
324.024	83.88
324.253	90.88
324.482	90.88
324.71	79.88
324.939	82.88
325.168	72.88
325.397	95.88
325.626	85.88
325.855	91.88
326.084	84.88
326.313	79.88
326.542	86.88
326.77	81.88
326.999	95.88
327.228	73.88
327.457	77.88
327.686	100.88
327.914	82.88
328.143	79.88
328.372	94.88
328.6	86.88
328.829	72.88
329.058	96.88
329.287	87.88
329.515	96.88
329.744	83.88
329.972	99.88
330.201	97.88
330.43	85.88
330.658	91.88
330.887	85.88
331.115	81.88
331.344	92.88
331.572	93.88
331.801	86.88
332.03	92.88
332.258	97.88
332.486	82.88
332.715	85.88
332.943	85.88
333.172	79.88
333.4	81.88
333.629	87.88
333.857	81.88
334.085	100.88
334.314	89.88
334.542	100.88
334.771	82.88
334.999	80.88
335.227	91.88
335.455	84.88
335.684	81.88
335.912	84.88
336.14	93.88
336.369	79.88
336.597	91.88
336.825	84.88
337.053	90.88
337.281	89.88
337.51	86.88
337.738	81.88
337.966	86.88
338.194	90.88
338.422	106.88
338.65	83.88
338.878	100.88
339.106	72.88
339.334	79.88
339.562	85.88
339.79	79.88
340.018	79.88
340.246	91.88
340.474	85.88
340.702	74.88
340.93	98.88
341.158	90.88
341.386	87.88
341.614	95.88
341.842	86.88
342.07	92.88
342.298	96.88
342.526	83.88
342.754	83.88
342.981	86.88
343.209	74.88
343.437	76.88
343.665	87.88
343.893	90.88
344.12	89.88
344.348	85.88
344.576	97.88
344.804	83.88
345.031	75.88
345.259	83.88
345.487	83.88
345.714	97.88
345.942	79.88
346.17	93.88
346.397	73.88
346.625	91.88
346.853	79.88
347.08	84.88
347.308	84.88
347.535	75.88
347.763	103.88
347.99	77.88
348.218	86.88
348.445	85.88
348.673	74.88
348.9	87.88
349.128	91.88
349.355	81.88
349.583	94.88
349.81	85.88
350.037	98.88
350.265	90.88
350.492	78.88
350.72	91.88
350.947	74.88
351.174	92.88
351.402	83.88
351.629	75.88
351.856	84.88
352.083	91.88
352.311	79.88
352.538	82.88
352.765	90.88
352.992	95.88
353.22	80.88
353.447	80.88
353.674	90.88
353.901	84.88
354.128	90.88
354.355	101.88
354.583	80.88
354.81	99.88
355.037	98.88
355.264	98.88
355.491	92.88
355.718	85.88
355.945	76.88
356.172	82.88
356.399	98.88
356.626	79.88
356.853	80.88
357.08	74.88
357.307	95.88
357.534	91.88
357.761	83.88
357.988	72.88
358.215	70.88
358.441	91.88
358.668	79.88
358.895	77.88
359.122	88.88
359.349	80.88
359.576	78.88
359.802	79.88
360.029	90.88
360.256	89.88
360.483	76.88
360.709	62.88
360.936	90.88
361.163	85.88
361.39	81.88
361.616	91.88
361.843	78.88
362.07	82.88
362.296	93.88
362.523	82.88
362.749	87.88
362.976	76.88
363.203	97.88
363.429	95.88
363.656	87.88
363.882	79.88
364.109	82.88
364.335	94.88
364.562	86.88
364.788	85.88
365.015	72.88
365.241	78.88
365.468	86.88
365.694	93.88
365.92	78.88
366.147	86.88
366.373	81.88
366.599	89.88
366.826	88.88
367.052	88.88
367.278	74.88
367.505	85.88
367.731	89.88
367.957	95.88
368.184	93.88
368.41	103.88
368.636	90.88
368.862	84.88
369.089	77.88
369.315	97.88
369.541	79.88
369.767	90.88
369.993	73.88
370.219	93.88
370.445	94.88
370.672	79.88
370.898	82.88
371.124	94.88
371.35	92.88
371.576	94.88
371.802	79.88
372.028	83.88
372.254	99.88
372.48	75.88
372.706	97.88
372.932	81.88
373.158	93.88
373.384	77.88
373.61	88.88
373.835	90.88
374.061	96.88
374.287	94.88
374.513	79.88
374.739	88.88
374.965	87.88
375.191	76.88
375.416	77.88
375.642	77.88
375.868	84.88
376.094	98.88
376.319	98.88
376.545	86.88
376.771	95.88
376.997	86.88
377.222	97.88
377.448	92.88
377.674	80.88
377.899	80.88
378.125	85.88
378.35	94.88
378.576	94.88
378.802	65.88
379.027	88.88
379.253	84.88
379.478	72.88
379.704	80.88
379.929	97.88
380.155	92.88
380.38	79.88
380.606	81.88
380.831	93.88
381.057	93.88
381.282	83.88
381.507	94.88
381.733	78.88
381.958	69.88
382.184	82.88
382.409	81.88
382.634	100.88
382.86	88.88
383.085	94.88
383.31	87.88
383.535	77.88
383.761	98.88
383.986	100.88
384.211	95.88
384.436	79.88
384.662	86.88
384.887	87.88
385.112	72.88
385.337	100.88
385.562	100.88
385.787	74.88
386.013	98.88
386.238	90.88
386.463	92.88
386.688	83.88
386.913	85.88
387.138	85.88
387.363	95.88
387.588	95.88
387.813	89.88
388.038	86.88
388.263	103.88
388.488	84.88
388.713	102.88
388.938	85.88
389.163	92.88
389.387	89.88
389.612	91.88
389.837	98.88
390.062	77.88
390.287	89.88
390.512	80.88
390.736	101.88
390.961	97.88
391.186	89.88
391.411	86.88
391.636	82.88
391.86	87.88
392.085	107.88
392.31	97.88
392.534	90.88
392.759	91.88
392.984	87.88
393.208	72.88
393.433	81.88
393.658	94.88
393.882	98.88
394.107	86.88
394.331	96.88
394.556	102.88
394.78	99.88
395.005	91.88
395.229	90.88
395.454	89.88
395.678	99.88
395.903	97.88
396.127	110.88
396.352	77.88
396.576	97.88
396.801	108.88
397.025	99.88
397.249	94.88
397.474	78.88
397.698	93.88
397.922	99.88
398.147	106.88
398.371	75.88
398.595	95.88
398.82	96.88
399.044	89.88
399.268	96.88
399.492	98.88
399.717	110.88
399.941	84.88
400.165	83.88
400.389	88.88
400.613	101.88
400.837	95.88
401.062	91.88
401.286	99.88
401.51	91.88
401.734	91.88
401.958	99.88
402.182	104.88
402.406	90.88
402.63	87.88
402.854	102.88
403.078	100.88
403.302	93.88
403.526	97.88
403.75	75.88
403.974	108.88
404.198	100.88
404.422	103.88
404.645	91.88
404.869	101.88
405.093	110.88
405.317	99.88
405.541	100.88
405.765	113.88
405.988	100.88
406.212	101.88
406.436	101.88
406.66	110.88
406.883	98.88
407.107	97.88
407.331	108.88
407.555	95.88
407.778	92.88
408.002	96.88
408.226	104.88
408.449	107.88
408.673	93.88
408.896	103.88
409.12	87.88
409.344	80.88
409.567	91.88
409.791	107.88
410.014	87.88
410.238	93.88
410.461	95.88
410.685	89.88
410.908	109.88
411.132	113.88
411.355	83.88
411.578	93.88
411.802	93.88
412.025	102.88
412.249	83.88
412.472	103.88
412.695	92.88
412.919	93.88
413.142	119.88
413.365	105.88
413.589	96.88
413.812	102.88
414.035	99.88
414.258	85.88
414.482	107.88
414.705	111.88
414.928	98.88
415.151	90.88
415.374	105.88
415.597	98.88
415.821	95.88
416.044	93.88
416.267	103.88
416.49	109.88
416.713	100.88
416.936	105.88
417.159	106.88
417.382	91.88
417.605	94.88
417.828	114.88
418.051	98.88
418.274	100.88
418.497	110.88
418.72	115.88
418.943	109.88
419.166	106.88
419.389	89.88
419.611	99.88
419.834	105.88
420.057	99.88
420.28	115.88
420.503	121.88
420.726	106.88
420.948	115.88
421.171	109.88
421.394	99.88
421.617	119.88
421.839	113.88
422.062	115.88
422.285	106.88
422.507	107.88
422.73	101.88
422.953	98.88
423.175	110.88
423.398	93.88
423.621	96.88
423.843	108.88
424.066	118.88
424.288	125.88
424.511	94.88
424.733	98.88
424.956	117.88
425.178	118.88
425.401	109.88
425.623	95.88
425.846	108.88
426.068	108.88
426.291	107.88
426.513	113.88
426.735	108.88
426.958	95.88
427.18	100.88
427.402	106.88
427.625	108.88
427.847	114.88
428.069	123.88
428.292	117.88
428.514	107.88
428.736	105.88
428.958	92.88
429.181	115.88
429.403	115.88
429.625	105.88
429.847	109.88
430.069	116.88
430.292	106.88
430.514	106.88
430.736	92.88
430.958	111.88
431.18	118.88
431.402	101.88
431.624	108.88
431.846	102.88
432.068	106.88
432.29	84.88
432.512	111.88
432.734	92.88
432.956	101.88
433.178	100.88
433.4	102.88
433.622	118.88
433.844	116.88
434.066	109.88
434.287	90.88
434.509	103.88
434.731	98.88
434.953	86.88
435.175	99.88
435.397	108.88
435.618	97.88
435.84	97.88
436.062	114.88
436.284	96.88
436.505	114.88
436.727	97.88
436.949	122.88
437.17	103.88
437.392	103.88
437.614	94.88
437.835	93.88
438.057	101.88
438.278	106.88
438.5	120.88
438.721	94.88
438.943	121.88
439.165	97.88
439.386	104.88
439.608	110.88
439.829	124.88
440.05	120.88
440.272	106.88
440.493	118.88
440.715	117.88
440.936	101.88
441.158	115.88
441.379	104.88
441.6	117.88
441.822	119.88
442.043	113.88
442.264	108.88
442.486	104.88
442.707	111.88
442.928	113.88
443.149	95.88
443.371	111.88
443.592	107.88
443.813	109.88
444.034	117.88
444.255	118.88
444.476	101.88
444.698	118.88
444.919	110.88
445.14	229.88
445.361	147.88
445.582	113.88
445.803	101.88
446.024	127.88
446.245	133.88
446.466	121.88
446.687	110.88
446.908	111.88
447.129	107.88
447.35	105.88
447.571	116.88
447.792	118.88
448.013	117.88
448.234	129.88
448.455	117.88
448.675	98.88
448.896	110.88
449.117	106.88
449.338	106.88
449.559	99.88
449.779	101.88
450	106.88
450.221	111.88
450.442	110.88
450.662	85.88
450.883	108.88
451.104	95.88
451.324	116.88
451.545	108.88
451.766	105.88
451.986	98.88
452.207	105.88
452.428	106.88
452.648	104.88
452.869	110.88
453.089	104.88
453.31	97.88
453.53	103.88
453.751	103.88
453.971	109.88
454.192	85.88
454.412	98.88
454.633	112.88
454.853	107.88
455.073	102.88
455.294	105.88
455.514	102.88
455.734	103.88
455.955	106.88
456.175	95.88
456.395	104.88
456.616	99.88
456.836	89.88
457.056	111.88
457.276	105.88
457.497	91.88
457.717	91.88
457.937	98.88
458.157	94.88
458.377	96.88
458.598	101.88
458.818	91.88
459.038	93.88
459.258	94.88
459.478	86.88
459.698	91.88
459.918	97.88
460.138	97.88
460.358	95.88
460.578	83.88
460.798	95.88
461.018	116.88
461.238	109.88
461.458	100.88
461.678	104.88
461.898	110.88
462.118	102.88
462.338	79.88
462.558	99.88
462.777	96.88
462.997	86.88
463.217	96.88
463.437	95.88
463.657	98.88
463.876	123.88
464.096	97.88
464.316	97.88
464.536	99.88
464.755	102.88
464.975	90.88
465.195	103.88
465.414	101.88
465.634	98.88
465.854	119.88
466.073	115.88
466.293	104.88
466.512	100.88
466.732	104.88
466.951	115.88
467.171	106.88
467.391	109.88
467.61	114.88
467.829	105.88
468.049	115.88
468.268	113.88
468.488	110.88
468.707	109.88
468.927	101.88
469.146	104.88
469.365	101.88
469.585	117.88
469.804	119.88
470.023	108.88
470.243	101.88
470.462	124.88
470.681	109.88
470.901	117.88
471.12	112.88
471.339	113.88
471.558	103.88
471.777	127.88
471.997	106.88
472.216	106.88
472.435	98.88
472.654	101.88
472.873	97.88
473.092	95.88
473.311	110.88
473.53	110.88
473.749	107.88
473.968	117.88
474.187	104.88
474.406	119.88
474.625	109.88
474.844	115.88
475.063	121.88
475.282	110.88
475.501	109.88
475.72	109.88
475.939	111.88
476.158	91.88
476.377	108.88
476.596	109.88
476.814	94.88
477.033	105.88
477.252	89.88
477.471	120.88
477.69	103.88
477.908	107.88
478.127	118.88
478.346	101.88
478.564	99.88
478.783	106.88
479.002	104.88
479.22	111.88
479.439	101.88
479.658	113.88
479.876	90.88
480.095	103.88
480.313	101.88
480.532	104.88
480.751	94.88
480.969	78.88
481.188	88.88
481.406	93.88
481.624	97.88
481.843	85.88
482.061	87.88
482.28	91.88
482.498	102.88
482.717	108.88
482.935	99.88
483.153	117.88
483.372	113.88
483.59	114.88
483.808	97.88
484.027	104.88
484.245	99.88
484.463	122.88
484.681	111.88
484.9	125.88
485.118	119.88
485.336	106.88
485.554	100.88
485.772	102.88
485.99	81.88
486.209	104.88
486.427	101.88
486.645	109.88
486.863	112.88
487.081	110.88
487.299	115.88
487.517	127.88
487.735	130.88
487.953	117.88
488.171	122.88
488.389	122.88
488.607	128.88
488.825	103.88
489.043	108.88
489.261	117.88
489.479	95.88
489.696	101.88
489.914	118.88
490.132	107.88
490.35	123.88
490.568	130.88
490.786	135.88
491.003	125.88
491.221	131.88
491.439	129.88
491.657	134.88
491.874	136.88
492.092	154.88
492.31	156.88
492.527	150.88
492.745	139.88
492.963	149.88
493.18	131.88
493.398	131.88
493.615	130.88
493.833	131.88
494.05	121.88
494.268	129.88
494.485	132.88
494.703	125.88
494.92	139.88
495.138	130.88
495.355	128.88
495.573	140.88
495.79	129.88
496.008	138.88
496.225	111.88
496.442	133.88
496.66	133.88
496.877	124.88
497.094	120.88
497.312	122.88
497.529	127.88
497.746	121.88
497.963	125.88
498.181	122.88
498.398	110.88
498.615	109.88
498.832	102.88
499.049	92.88
499.267	111.88
499.484	106.88
499.701	105.88
499.918	99.88
500.135	105.88
500.352	108.88
500.569	116.88
500.786	129.88
501.003	119.88
501.22	115.88
501.437	110.88
501.654	133.88
501.871	102.88
502.088	85.88
502.305	106.88
502.522	115.88
502.739	127.88
502.956	100.88
503.172	93.88
503.389	102.88
503.606	101.88
503.823	104.88
504.04	102.88
504.256	102.88
504.473	102.88
504.69	102.88
504.907	108.88
505.123	103.88
505.34	110.88
505.557	104.88
505.773	113.88
505.99	94.88
506.207	109.88
506.423	103.88
506.64	97.88
506.856	116.88
507.073	112.88
507.289	113.88
507.506	116.88
507.722	103.88
507.939	97.88
508.155	98.88
508.372	101.88
508.588	100.88
508.805	106.88
509.021	96.88
509.238	90.88
509.454	108.88
509.67	91.88
509.887	87.88
510.103	91.88
510.319	103.88
510.536	99.88
510.752	92.88
510.968	88.88
511.184	81.88
511.401	83.88
511.617	101.88
511.833	88.88
512.049	85.88
512.265	97.88
512.481	93.88
512.698	100.88
512.914	99.88
513.13	94.88
513.346	96.88
513.562	93.88
513.778	94.88
513.994	88.88
514.21	102.88
514.426	86.88
514.642	94.88
514.858	98.88
515.074	104.88
515.29	88.88
515.506	100.88
515.721	108.88
515.937	101.88
516.153	81.88
516.369	99.88
516.585	91.88
516.801	86.88
517.016	86.88
517.232	85.88
517.448	88.88
517.664	101.88
517.879	89.88
518.095	94.88
518.311	102.88
518.527	90.88
518.742	78.88
518.958	81.88
519.173	97.88
519.389	98.88
519.605	104.88
519.82	81.88
520.036	101.88
520.251	98.88
520.467	97.88
520.682	88.88
520.898	86.88
521.113	104.88
521.329	99.88
521.544	98.88
521.76	78.88
521.975	94.88
522.19	92.88
522.406	104.88
522.621	82.88
522.836	108.88
523.052	105.88
523.267	106.88
523.482	111.88
523.698	102.88
523.913	117.88
524.128	115.88
524.343	115.88
524.559	108.88
524.774	102.88
524.989	121.88
525.204	99.88
525.419	98.88
525.634	102.88
525.849	98.88
526.064	90.88
526.28	94.88
526.495	89.88
526.71	92.88
526.925	79.88
527.14	80.88
527.355	81.88
527.57	87.88
527.785	103.88
527.999	89.88
528.214	100.88
528.429	100.88
528.644	115.88
528.859	111.88
529.074	120.88
529.289	119.88
529.503	113.88
529.718	114.88
529.933	93.88
530.148	105.88
530.363	106.88
530.577	76.88
530.792	83.88
531.007	96.88
531.221	85.88
531.436	89.88
531.651	89.88
531.865	84.88
532.08	93.88
532.295	90.88
532.509	77.88
532.724	88.88
532.938	86.88
533.153	94.88
533.367	94.88
533.582	97.88
533.796	107.88
534.011	99.88
534.225	88.88
534.44	92.88
534.654	79.88
534.868	101.88
535.083	81.88
535.297	101.88
535.511	109.88
535.726	99.88
535.94	97.88
536.154	85.88
536.369	94.88
536.583	82.88
536.797	97.88
537.011	82.88
537.225	105.88
537.44	78.88
537.654	87.88
537.868	92.88
538.082	79.88
538.296	89.88
538.51	93.88
538.724	88.88
538.938	95.88
539.153	91.88
539.367	105.88
539.581	105.88
539.795	87.88
540.009	107.88
540.222	86.88
540.436	100.88
540.65	104.88
540.864	108.88
541.078	116.88
541.292	123.88
541.506	114.88
541.72	125.88
541.934	134.88
542.147	138.88
542.361	139.88
542.575	126.88
542.789	122.88
543.002	119.88
543.216	118.88
543.43	103.88
543.644	106.88
543.857	107.88
544.071	127.88
544.285	132.88
544.498	122.88
544.712	115.88
544.925	128.88
545.139	119.88
545.352	126.88
545.566	125.88
545.779	139.88
545.993	129.88
546.206	124.88
546.42	137.88
546.633	133.88
546.847	143.88
547.06	125.88
547.274	120.88
547.487	137.88
547.7	124.88
547.914	118.88
548.127	122.88
548.34	123.88
548.554	117.88
548.767	107.88
548.98	139.88
549.193	117.88
549.407	125.88
549.62	131.88
549.833	121.88
550.046	135.88
550.259	134.88
550.473	120.88
550.686	125.88
550.899	124.88
551.112	109.88
551.325	124.88
551.538	114.88
551.751	112.88
551.964	118.88
552.177	111.88
552.39	109.88
552.603	115.88
552.816	107.88
553.029	127.88
553.242	117.88
553.455	122.88
553.667	143.88
553.88	123.88
554.093	124.88
554.306	136.88
554.519	124.88
554.732	137.88
554.944	104.88
555.157	127.88
555.37	123.88
555.583	114.88
555.795	107.88
556.008	122.88
556.221	104.88
556.433	123.88
556.646	123.88
556.859	109.88
557.071	110.88
557.284	122.88
557.496	116.88
557.709	108.88
557.921	111.88
558.134	113.88
558.346	114.88
558.559	119.88
558.771	110.88
558.984	125.88
559.196	121.88
559.409	116.88
559.621	117.88
559.833	109.88
560.046	121.88
560.258	115.88
560.47	104.88
560.683	113.88
560.895	100.88
561.107	105.88
561.32	90.88
561.532	101.88
561.744	107.88
561.956	109.88
562.168	110.88
562.381	102.88
562.593	106.88
562.805	118.88
563.017	113.88
563.229	110.88
563.441	112.88
563.653	106.88
563.865	103.88
564.077	101.88
564.289	105.88
564.501	98.88
564.713	110.88
564.925	106.88
565.137	102.88
565.349	104.88
565.561	98.88
565.773	100.88
565.985	111.88
566.197	109.88
566.408	115.88
566.62	100.88
566.832	107.88
567.044	107.88
567.255	94.88
567.467	94.88
567.679	89.88
567.891	95.88
568.102	103.88
568.314	95.88
568.526	85.88
568.737	92.88
568.949	100.88
569.161	86.88
569.372	105.88
569.584	87.88
569.795	70.88
570.007	70.88
570.218	98.88
570.43	100.88
570.641	100.88
570.853	91.88
571.064	114.88
571.276	94.88
571.487	89.88
571.698	95.88
571.91	89.88
572.121	95.88
572.333	99.88
572.544	98.88
572.755	101.88
572.966	85.88
573.178	79.88
573.389	90.88
573.6	85.88
573.811	100.88
574.023	79.88
574.234	74.88
574.445	89.88
574.656	86.88
574.867	89.88
575.078	94.88
575.289	91.88
575.501	79.88
575.712	102.88
575.923	91.88
576.134	85.88
576.345	98.88
576.556	94.88
576.767	89.88
576.978	99.88
577.188	87.88
577.399	80.88
577.61	93.88
577.821	78.88
578.032	87.88
578.243	91.88
578.454	99.88
578.665	97.88
578.875	79.88
579.086	84.88
579.297	92.88
579.508	86.88
579.718	86.88
579.929	116.88
580.14	100.88
580.35	90.88
580.561	84.88
580.772	87.88
580.982	91.88
581.193	82.88
581.403	83.88
581.614	92.88
581.825	90.88
582.035	85.88
582.246	95.88
582.456	91.88
582.667	82.88
582.877	79.88
583.087	90.88
583.298	90.88
583.508	91.88
583.719	90.88
583.929	89.88
584.139	85.88
584.35	101.88
584.56	96.88
584.77	90.88
584.981	86.88
585.191	90.88
585.401	93.88
585.611	95.88
585.821	109.88
586.032	87.88
586.242	86.88
586.452	84.88
586.662	92.88
586.872	71.88
587.082	82.88
587.292	91.88
587.502	75.88
587.713	86.88
587.923	83.88
588.133	78.88
588.343	85.88
588.553	79.88
588.762	103.88
588.972	87.88
589.182	85.88
589.392	93.88
589.602	89.88
589.812	75.88
590.022	87.88
590.232	94.88
590.441	88.88
590.651	89.88
590.861	92.88
591.071	85.88
591.281	84.88
591.49	95.88
591.7	88.88
591.91	73.88
592.119	84.88
592.329	108.88
592.539	108.88
592.748	84.88
592.958	84.88
593.167	88.88
593.377	81.88
593.587	99.88
593.796	107.88
594.006	100.88
594.215	91.88
594.424	70.88
594.634	89.88
594.843	92.88
595.053	89.88
595.262	97.88
595.472	99.88
595.681	91.88
595.89	94.88
596.1	89.88
596.309	81.88
596.518	90.88
596.727	82.88
596.937	95.88
597.146	102.88
597.355	97.88
597.564	89.88
597.774	85.88
597.983	91.88
598.192	79.88
598.401	86.88
598.61	91.88
598.819	92.88
599.028	91.88
599.237	92.88
599.446	94.88
599.655	86.88
599.864	101.88
600.073	89.88
600.282	95.88
600.491	89.88
600.7	95.88
600.909	91.88
601.118	103.88
601.327	95.88
601.536	85.88
601.745	98.88
601.953	95.88
602.162	100.88
602.371	92.88
602.58	93.88
602.789	104.88
602.997	94.88
603.206	94.88
603.415	90.88
603.623	94.88
603.832	91.88
604.041	94.88
604.249	92.88
604.458	95.88
604.666	77.88
604.875	103.88
605.084	87.88
605.292	83.88
605.501	87.88
605.709	99.88
605.918	98.88
606.126	105.88
606.334	98.88
606.543	100.88
606.751	103.88
606.96	99.88
607.168	86.88
607.376	87.88
607.585	97.88
607.793	94.88
608.001	111.88
608.21	98.88
608.418	106.88
608.626	95.88
608.834	90.88
609.043	100.88
609.251	84.88
609.459	100.88
609.667	97.88
609.875	107.88
610.083	121.88
610.291	99.88
610.499	117.88
610.707	100.88
610.916	91.88
611.124	90.88
611.332	114.88
611.54	107.88
611.748	95.88
611.955	105.88
612.163	92.88
612.371	114.88
612.579	90.88
612.787	98.88
612.995	108.88
613.203	110.88
613.411	97.88
613.618	116.88
613.826	101.88
614.034	102.88
614.242	119.88
614.449	97.88
614.657	81.88
614.865	91.88
615.072	93.88
615.28	98.88
615.488	89.88
615.695	96.88
615.903	91.88
616.111	97.88
616.318	103.88
616.526	95.88
616.733	103.88
616.941	88.88
617.148	110.88
617.356	105.88
617.563	89.88
617.771	94.88
617.978	100.88
618.185	100.88
618.393	104.88
618.6	120.88
618.807	98.88
619.015	113.88
619.222	97.88
619.429	72.88
619.637	92.88
619.844	99.88
620.051	82.88
620.258	108.88
620.466	95.88
620.673	93.88
620.88	106.88
621.087	97.88
621.294	109.88
621.501	94.88
621.708	91.88
621.915	105.88
622.122	99.88
622.329	96.88
622.536	111.88
622.743	98.88
622.95	88.88
623.157	91.88
623.364	101.88
623.571	97.88
623.778	102.88
623.985	97.88
624.192	97.88
624.399	101.88
624.606	102.88
624.812	96.88
625.019	108.88
625.226	101.88
625.433	99.88
625.639	103.88
625.846	90.88
626.053	100.88
626.259	105.88
626.466	101.88
626.673	84.88
626.879	103.88
627.086	101.88
627.293	93.88
627.499	88.88
627.706	94.88
627.912	99.88
628.119	103.88
628.325	111.88
628.532	94.88
628.738	87.88
628.945	85.88
629.151	97.88
629.357	96.88
629.564	96.88
629.77	98.88
629.976	96.88
630.183	84.88
630.389	89.88
630.595	92.88
630.802	97.88
631.008	91.88
631.214	97.88
631.42	83.88
631.627	88.88
631.833	95.88
632.039	78.88
632.245	96.88
632.451	108.88
632.657	93.88
632.863	93.88
633.069	89.88
633.275	87.88
633.481	83.88
633.688	91.88
633.893	87.88
634.099	97.88
634.305	91.88
634.511	85.88
634.717	78.88
634.923	94.88
635.129	96.88
635.335	89.88
635.541	87.88
635.747	87.88
635.952	81.88
636.158	102.88
636.364	100.88
636.57	83.88
636.775	90.88
636.981	79.88
637.187	90.88
637.392	89.88
637.598	91.88
637.804	89.88
638.009	113.88
638.215	83.88
638.421	83.88
638.626	94.88
638.832	90.88
639.037	95.88
639.243	96.88
639.448	86.88
639.654	96.88
639.859	97.88
640.065	100.88
640.27	100.88
640.475	92.88
640.681	86.88
640.886	87.88
641.091	92.88
641.297	90.88
641.502	109.88
641.707	104.88
641.913	83.88
642.118	83.88
642.323	89.88
642.528	92.88
642.733	90.88
642.939	83.88
643.144	98.88
643.349	85.88
643.554	94.88
643.759	105.88
643.964	88.88
644.169	104.88
644.374	86.88
644.579	97.88
644.784	83.88
644.989	89.88
645.194	98.88
645.399	100.88
645.604	107.88
645.809	87.88
646.014	84.88
646.219	76.88
646.423	102.88
646.628	86.88
646.833	101.88
647.038	84.88
647.243	94.88
647.447	103.88
647.652	100.88
647.857	88.88
648.062	94.88
648.266	83.88
648.471	90.88
648.676	99.88
648.88	101.88
649.085	85.88
649.289	69.88
649.494	84.88
649.698	104.88
649.903	92.88
650.107	99.88
650.312	98.88
650.516	114.88
650.721	94.88
650.925	100.88
651.13	96.88
651.334	87.88
651.539	94.88
651.743	99.88
651.947	94.88
652.152	83.88
652.356	87.88
652.56	102.88
652.764	90.88
652.969	84.88
653.173	67.88
653.377	93.88
653.581	91.88
653.785	101.88
653.99	90.88
654.194	87.88
654.398	75.88
654.602	87.88
654.806	101.88
655.01	97.88
655.214	91.88
655.418	102.88
655.622	90.88
655.826	100.88
656.03	93.88
656.234	91.88
656.438	96.88
656.642	91.88
656.846	81.88
657.049	87.88
657.253	95.88
657.457	87.88
657.661	92.88
657.865	81.88
658.068	88.88
658.272	88.88
658.476	84.88
658.68	79.88
658.883	70.88
659.087	95.88
659.291	70.88
659.494	81.88
659.698	81.88
659.901	100.88
660.105	79.88
660.309	75.88
660.512	70.88
660.716	73.88
660.919	95.88
661.123	93.88
661.326	84.88
661.53	92.88
661.733	85.88
661.936	98.88
662.14	78.88
662.343	86.88
662.546	85.88
662.75	97.88
662.953	63.88
663.156	75.88
663.36	85.88
663.563	81.88
663.766	88.88
663.969	87.88
664.173	90.88
664.376	97.88
664.579	91.88
664.782	83.88
664.985	86.88
665.188	93.88
665.391	90.88
665.594	75.88
665.797	84.88
666	85.88
666.203	72.88
666.406	67.88
666.609	81.88
666.812	74.88
667.015	85.88
667.218	98.88
667.421	81.88
667.624	82.88
667.827	73.88
668.03	92.88
668.232	92.88
668.435	92.88
668.638	76.88
668.841	88.88
669.043	77.88
669.246	83.88
669.449	77.88
669.651	79.88
669.854	82.88
670.057	86.88
670.259	90.88
670.462	85.88
670.665	78.88
670.867	85.88
671.07	85.88
671.272	83.88
671.475	83.88
671.677	93.88
671.88	76.88
672.082	86.88
672.284	83.88
672.487	90.88
672.689	89.88
672.892	89.88
