Data from Zn(NO3)2Standard.Agarose3%.GreenCap.LampEnergy10E.O_HRD10591_15-08-48-951.txt Node
Date: Mon Jul 22 15:08:48 EDT 2019
User: cochatt
Spectrometer: HR+D1059
Trigger mode: 1
Integration Time (sec): 1.000000E-1
Scans to average: 1
Electric dark correction enabled: true
Nonlinearity correction enabled: false
Boxcar width: 0
XAxis mode: Wavelengths
Number of Pixels in Spectrum: 2048
>>>>>Begin Spectral Data<<<<<
223.165	-16.56
223.4	-16.56
223.635	-16.56
223.869	-20.56
224.104	-14.56
224.338	-7.56
224.573	-18.56
224.808	-15.56
225.042	-1.56
225.277	-5.56
225.511	-16.56
225.746	0.44
225.98	13.44
226.215	7.44
226.449	8.44
226.683	30.44
226.918	23.44
227.152	33.44
227.387	39.44
227.621	43.44
227.856	46.44
228.09	41.44
228.324	51.44
228.559	60.44
228.793	54.44
229.027	69.44
229.262	84.44
229.496	71.44
229.73	59.44
229.964	64.44
230.199	75.44
230.433	77.44
230.667	84.44
230.901	71.44
231.136	79.44
231.37	94.44
231.604	68.44
231.838	79.44
232.072	76.44
232.306	90.44
232.541	91.44
232.775	88.44
233.009	80.44
233.243	84.44
233.477	86.44
233.711	86.44
233.945	70.44
234.179	83.44
234.413	82.44
234.647	78.44
234.881	71.44
235.115	78.44
235.349	77.44
235.583	86.44
235.817	79.44
236.051	68.44
236.285	66.44
236.519	68.44
236.753	79.44
236.987	80.44
237.221	81.44
237.455	68.44
237.689	85.44
237.922	76.44
238.156	82.44
238.39	64.44
238.624	73.44
238.858	74.44
239.091	70.44
239.325	77.44
239.559	75.44
239.793	73.44
240.027	76.44
240.26	94.44
240.494	85.44
240.728	76.44
240.961	72.44
241.195	79.44
241.429	79.44
241.662	80.44
241.896	91.44
242.13	83.44
242.363	68.44
242.597	70.44
242.83	76.44
243.064	88.44
243.298	73.44
243.531	88.44
243.765	84.44
243.998	66.44
244.232	91.44
244.465	66.44
244.699	79.44
244.932	79.44
245.166	79.44
245.399	60.44
245.633	79.44
245.866	67.44
246.099	80.44
246.333	79.44
246.566	73.44
246.8	82.44
247.033	80.44
247.266	78.44
247.5	65.44
247.733	87.44
247.966	74.44
248.2	64.44
248.433	89.44
248.666	91.44
248.899	82.44
249.133	85.44
249.366	84.44
249.599	75.44
249.832	77.44
250.066	84.44
250.299	79.44
250.532	66.44
250.765	73.44
250.998	78.44
251.231	71.44
251.465	77.44
251.698	77.44
251.931	84.44
252.164	87.44
252.397	86.44
252.63	77.44
252.863	88.44
253.096	90.44
253.329	84.44
253.562	89.44
253.795	80.44
254.028	86.44
254.261	96.44
254.494	82.44
254.727	88.44
254.96	87.44
255.193	91.44
255.426	77.44
255.659	84.44
255.892	89.44
256.124	92.44
256.357	96.44
256.59	93.44
256.823	63.44
257.056	88.44
257.289	90.44
257.521	87.44
257.754	86.44
257.987	74.44
258.22	74.44
258.452	84.44
258.685	79.44
258.918	94.44
259.151	75.44
259.383	72.44
259.616	76.44
259.849	78.44
260.081	80.44
260.314	80.44
260.547	70.44
260.779	77.44
261.012	76.44
261.244	79.44
261.477	82.44
261.71	91.44
261.942	78.44
262.175	79.44
262.407	73.44
262.64	84.44
262.872	72.44
263.105	84.44
263.337	91.44
263.57	86.44
263.802	75.44
264.035	82.44
264.267	86.44
264.499	88.44
264.732	86.44
264.964	79.44
265.197	86.44
265.429	83.44
265.661	92.44
265.894	92.44
266.126	101.44
266.358	65.44
266.591	84.44
266.823	75.44
267.055	77.44
267.287	82.44
267.52	81.44
267.752	91.44
267.984	75.44
268.216	75.44
268.448	82.44
268.681	88.44
268.913	83.44
269.145	89.44
269.377	77.44
269.609	88.44
269.841	90.44
270.073	78.44
270.306	92.44
270.538	90.44
270.77	78.44
271.002	84.44
271.234	84.44
271.466	84.44
271.698	104.44
271.93	82.44
272.162	54.44
272.394	97.44
272.626	94.44
272.858	72.44
273.09	90.44
273.322	83.44
273.553	86.44
273.785	93.44
274.017	97.44
274.249	98.44
274.481	88.44
274.713	83.44
274.945	93.44
275.176	68.44
275.408	96.44
275.64	91.44
275.872	91.44
276.104	81.44
276.335	70.44
276.567	82.44
276.799	79.44
277.031	94.44
277.262	95.44
277.494	88.44
277.726	91.44
277.957	91.44
278.189	73.44
278.421	94.44
278.652	96.44
278.884	95.44
279.115	90.44
279.347	98.44
279.579	94.44
279.81	89.44
280.042	95.44
280.273	80.44
280.505	80.44
280.736	93.44
280.968	92.44
281.199	89.44
281.431	84.44
281.662	94.44
281.894	88.44
282.125	87.44
282.356	90.44
282.588	84.44
282.819	81.44
283.051	89.44
283.282	93.44
283.513	88.44
283.745	87.44
283.976	86.44
284.207	92.44
284.439	77.44
284.67	68.44
284.901	74.44
285.132	91.44
285.364	104.44
285.595	100.44
285.826	88.44
286.057	90.44
286.288	95.44
286.52	85.44
286.751	94.44
286.982	82.44
287.213	90.44
287.444	89.44
287.675	76.44
287.906	95.44
288.138	86.44
288.369	91.44
288.6	86.44
288.831	75.44
289.062	88.44
289.293	102.44
289.524	95.44
289.755	84.44
289.986	81.44
290.217	80.44
290.448	93.44
290.679	101.44
290.91	84.44
291.141	80.44
291.371	78.44
291.602	82.44
291.833	82.44
292.064	86.44
292.295	77.44
292.526	98.44
292.757	82.44
292.987	90.44
293.218	86.44
293.449	78.44
293.68	99.44
293.91	90.44
294.141	80.44
294.372	78.44
294.603	87.44
294.833	78.44
295.064	70.44
295.295	78.44
295.525	78.44
295.756	90.44
295.987	91.44
296.217	86.44
296.448	91.44
296.679	91.44
296.909	96.44
297.14	78.44
297.37	98.44
297.601	87.44
297.831	85.44
298.062	88.44
298.292	82.44
298.523	89.44
298.753	77.44
298.984	68.44
299.214	73.44
299.445	97.44
299.675	100.44
299.905	96.44
300.136	90.44
300.366	85.44
300.597	90.44
300.827	87.44
301.057	97.44
301.288	92.44
301.518	76.44
301.748	92.44
301.979	77.44
302.209	73.44
302.439	84.44
302.669	73.44
302.9	92.44
303.13	89.44
303.36	87.44
303.59	101.44
303.82	94.44
304.051	84.44
304.281	94.44
304.511	104.44
304.741	81.44
304.971	86.44
305.201	86.44
305.431	78.44
305.661	84.44
305.891	92.44
306.121	88.44
306.352	96.44
306.582	84.44
306.812	86.44
307.042	90.44
307.272	78.44
307.502	80.44
307.731	88.44
307.961	96.44
308.191	94.44
308.421	82.44
308.651	85.44
308.881	91.44
309.111	81.44
309.341	89.44
309.571	94.44
309.8	85.44
310.03	68.44
310.26	70.44
310.49	80.44
310.72	82.44
310.949	79.44
311.179	88.44
311.409	89.44
311.639	80.44
311.868	95.44
312.098	88.44
312.328	90.44
312.557	84.44
312.787	88.44
313.017	84.44
313.246	85.44
313.476	99.44
313.706	99.44
313.935	93.44
314.165	95.44
314.394	83.44
314.624	73.44
314.853	97.44
315.083	100.44
315.312	73.44
315.542	85.44
315.771	80.44
316.001	95.44
316.23	82.44
316.46	86.44
316.689	99.44
316.919	77.44
317.148	78.44
317.377	83.44
317.607	91.44
317.836	79.44
318.065	86.44
318.295	83.44
318.524	82.44
318.753	92.44
318.983	87.44
319.212	84.44
319.441	86.44
319.67	95.44
319.9	87.44
320.129	81.44
320.358	99.44
320.587	98.44
320.816	86.44
321.046	74.44
321.275	82.44
321.504	90.44
321.733	77.44
321.962	104.44
322.191	88.44
322.42	98.44
322.649	86.44
322.878	94.44
323.108	86.44
323.337	84.44
323.566	80.44
323.795	91.44
324.024	87.44
324.253	99.44
324.482	80.44
324.71	74.44
324.939	74.44
325.168	92.44
325.397	77.44
325.626	87.44
325.855	91.44
326.084	90.44
326.313	95.44
326.542	92.44
326.77	94.44
326.999	86.44
327.228	87.44
327.457	90.44
327.686	82.44
327.914	66.44
328.143	69.44
328.372	88.44
328.6	70.44
328.829	82.44
329.058	90.44
329.287	80.44
329.515	91.44
329.744	84.44
329.972	82.44
330.201	87.44
330.43	85.44
330.658	87.44
330.887	89.44
331.115	85.44
331.344	97.44
331.572	78.44
331.801	80.44
332.03	98.44
332.258	94.44
332.486	91.44
332.715	84.44
332.943	89.44
333.172	87.44
333.4	80.44
333.629	85.44
333.857	98.44
334.085	99.44
334.314	83.44
334.542	88.44
334.771	83.44
334.999	103.44
335.227	95.44
335.455	88.44
335.684	92.44
335.912	75.44
336.14	88.44
336.369	69.44
336.597	94.44
336.825	85.44
337.053	91.44
337.281	88.44
337.51	91.44
337.738	103.44
337.966	84.44
338.194	80.44
338.422	83.44
338.65	84.44
338.878	76.44
339.106	67.44
339.334	90.44
339.562	79.44
339.79	96.44
340.018	72.44
340.246	86.44
340.474	84.44
340.702	99.44
340.93	91.44
341.158	97.44
341.386	96.44
341.614	80.44
341.842	87.44
342.07	82.44
342.298	90.44
342.526	80.44
342.754	80.44
342.981	87.44
343.209	102.44
343.437	96.44
343.665	92.44
343.893	87.44
344.12	90.44
344.348	69.44
344.576	84.44
344.804	85.44
345.031	86.44
345.259	72.44
345.487	80.44
345.714	86.44
345.942	74.44
346.17	96.44
346.397	90.44
346.625	89.44
346.853	73.44
347.08	85.44
347.308	87.44
347.535	79.44
347.763	87.44
347.99	83.44
348.218	91.44
348.445	82.44
348.673	85.44
348.9	88.44
349.128	74.44
349.355	94.44
349.583	100.44
349.81	78.44
350.037	88.44
350.265	83.44
350.492	91.44
350.72	95.44
350.947	91.44
351.174	80.44
351.402	80.44
351.629	94.44
351.856	88.44
352.083	79.44
352.311	80.44
352.538	78.44
352.765	101.44
352.992	90.44
353.22	79.44
353.447	95.44
353.674	90.44
353.901	76.44
354.128	85.44
354.355	74.44
354.583	87.44
354.81	80.44
355.037	79.44
355.264	78.44
355.491	89.44
355.718	75.44
355.945	84.44
356.172	89.44
356.399	95.44
356.626	90.44
356.853	92.44
357.08	91.44
357.307	81.44
357.534	76.44
357.761	86.44
357.988	77.44
358.215	83.44
358.441	97.44
358.668	91.44
358.895	93.44
359.122	75.44
359.349	86.44
359.576	85.44
359.802	86.44
360.029	81.44
360.256	98.44
360.483	92.44
360.709	82.44
360.936	93.44
361.163	92.44
361.39	76.44
361.616	78.44
361.843	76.44
362.07	76.44
362.296	93.44
362.523	92.44
362.749	88.44
362.976	104.44
363.203	81.44
363.429	85.44
363.656	93.44
363.882	81.44
364.109	85.44
364.335	87.44
364.562	103.44
364.788	84.44
365.015	86.44
365.241	99.44
365.468	81.44
365.694	83.44
365.92	90.44
366.147	84.44
366.373	86.44
366.599	87.44
366.826	77.44
367.052	78.44
367.278	90.44
367.505	73.44
367.731	89.44
367.957	103.44
368.184	80.44
368.41	88.44
368.636	85.44
368.862	92.44
369.089	91.44
369.315	83.44
369.541	93.44
369.767	93.44
369.993	98.44
370.219	86.44
370.445	83.44
370.672	86.44
370.898	98.44
371.124	89.44
371.35	86.44
371.576	107.44
371.802	102.44
372.028	81.44
372.254	72.44
372.48	101.44
372.706	91.44
372.932	78.44
373.158	88.44
373.384	112.44
373.61	93.44
373.835	79.44
374.061	86.44
374.287	82.44
374.513	79.44
374.739	74.44
374.965	87.44
375.191	80.44
375.416	99.44
375.642	85.44
375.868	101.44
376.094	86.44
376.319	97.44
376.545	79.44
376.771	83.44
376.997	101.44
377.222	91.44
377.448	102.44
377.674	80.44
377.899	84.44
378.125	96.44
378.35	90.44
378.576	78.44
378.802	85.44
379.027	83.44
379.253	75.44
379.478	88.44
379.704	94.44
379.929	82.44
380.155	82.44
380.38	90.44
380.606	77.44
380.831	90.44
381.057	105.44
381.282	95.44
381.507	86.44
381.733	92.44
381.958	86.44
382.184	95.44
382.409	97.44
382.634	84.44
382.86	84.44
383.085	102.44
383.31	77.44
383.535	88.44
383.761	82.44
383.986	86.44
384.211	85.44
384.436	92.44
384.662	85.44
384.887	92.44
385.112	99.44
385.337	75.44
385.562	102.44
385.787	94.44
386.013	105.44
386.238	90.44
386.463	94.44
386.688	80.44
386.913	91.44
387.138	84.44
387.363	84.44
387.588	111.44
387.813	107.44
388.038	89.44
388.263	96.44
388.488	90.44
388.713	79.44
388.938	86.44
389.163	105.44
389.387	87.44
389.612	116.44
389.837	99.44
390.062	76.44
390.287	91.44
390.512	98.44
390.736	103.44
390.961	110.44
391.186	86.44
391.411	92.44
391.636	93.44
391.86	97.44
392.085	80.44
392.31	101.44
392.534	95.44
392.759	102.44
392.984	99.44
393.208	88.44
393.433	83.44
393.658	86.44
393.882	110.44
394.107	92.44
394.331	91.44
394.556	91.44
394.78	104.44
395.005	95.44
395.229	102.44
395.454	91.44
395.678	88.44
395.903	103.44
396.127	105.44
396.352	91.44
396.576	101.44
396.801	93.44
397.025	114.44
397.249	86.44
397.474	93.44
397.698	86.44
397.922	86.44
398.147	92.44
398.371	91.44
398.595	97.44
398.82	94.44
399.044	84.44
399.268	89.44
399.492	84.44
399.717	94.44
399.941	89.44
400.165	95.44
400.389	94.44
400.613	79.44
400.837	90.44
401.062	98.44
401.286	93.44
401.51	87.44
401.734	89.44
401.958	96.44
402.182	107.44
402.406	107.44
402.63	108.44
402.854	102.44
403.078	90.44
403.302	106.44
403.526	81.44
403.75	94.44
403.974	93.44
404.198	117.44
404.422	99.44
404.645	97.44
404.869	106.44
405.093	106.44
405.317	107.44
405.541	104.44
405.765	91.44
405.988	101.44
406.212	87.44
406.436	122.44
406.66	105.44
406.883	102.44
407.107	99.44
407.331	87.44
407.555	89.44
407.778	100.44
408.002	82.44
408.226	114.44
408.449	104.44
408.673	114.44
408.896	100.44
409.12	104.44
409.344	109.44
409.567	100.44
409.791	84.44
410.014	99.44
410.238	96.44
410.461	96.44
410.685	98.44
410.908	99.44
411.132	108.44
411.355	104.44
411.578	102.44
411.802	100.44
412.025	106.44
412.249	107.44
412.472	103.44
412.695	103.44
412.919	103.44
413.142	106.44
413.365	108.44
413.589	102.44
413.812	97.44
414.035	115.44
414.258	97.44
414.482	92.44
414.705	108.44
414.928	121.44
415.151	99.44
415.374	111.44
415.597	112.44
415.821	98.44
416.044	91.44
416.267	111.44
416.49	93.44
416.713	125.44
416.936	123.44
417.159	113.44
417.382	106.44
417.605	120.44
417.828	82.44
418.051	98.44
418.274	100.44
418.497	112.44
418.72	99.44
418.943	101.44
419.166	120.44
419.389	107.44
419.611	104.44
419.834	125.44
420.057	95.44
420.28	109.44
420.503	99.44
420.726	110.44
420.948	115.44
421.171	97.44
421.394	112.44
421.617	105.44
421.839	83.44
422.062	103.44
422.285	95.44
422.507	100.44
422.73	92.44
422.953	99.44
423.175	96.44
423.398	107.44
423.621	111.44
423.843	113.44
424.066	117.44
424.288	109.44
424.511	108.44
424.733	120.44
424.956	105.44
425.178	116.44
425.401	99.44
425.623	127.44
425.846	108.44
426.068	105.44
426.291	95.44
426.513	102.44
426.735	117.44
426.958	112.44
427.18	103.44
427.402	92.44
427.625	104.44
427.847	107.44
428.069	124.44
428.292	92.44
428.514	106.44
428.736	101.44
428.958	115.44
429.181	96.44
429.403	86.44
429.625	94.44
429.847	101.44
430.069	119.44
430.292	94.44
430.514	117.44
430.736	106.44
430.958	102.44
431.18	113.44
431.402	98.44
431.624	104.44
431.846	103.44
432.068	92.44
432.29	78.44
432.512	103.44
432.734	99.44
432.956	102.44
433.178	110.44
433.4	103.44
433.622	114.44
433.844	117.44
434.066	111.44
434.287	92.44
434.509	87.44
434.731	77.44
434.953	86.44
435.175	105.44
435.397	114.44
435.618	94.44
435.84	102.44
436.062	97.44
436.284	108.44
436.505	100.44
436.727	97.44
436.949	100.44
437.17	95.44
437.392	103.44
437.614	109.44
437.835	86.44
438.057	96.44
438.278	105.44
438.5	102.44
438.721	96.44
438.943	118.44
439.165	118.44
439.386	109.44
439.608	121.44
439.829	119.44
440.05	112.44
440.272	120.44
440.493	106.44
440.715	101.44
440.936	118.44
441.158	118.44
441.379	107.44
441.6	114.44
441.822	104.44
442.043	107.44
442.264	117.44
442.486	122.44
442.707	104.44
442.928	113.44
443.149	100.44
443.371	120.44
443.592	115.44
443.813	105.44
444.034	117.44
444.255	117.44
444.476	108.44
444.698	105.44
444.919	96.44
445.14	246.44
445.361	169.44
445.582	114.44
445.803	100.44
446.024	121.44
446.245	120.44
446.466	116.44
446.687	111.44
446.908	127.44
447.129	124.44
447.35	120.44
447.571	111.44
447.792	122.44
448.013	110.44
448.234	112.44
448.455	116.44
448.675	110.44
448.896	105.44
449.117	116.44
449.338	114.44
449.559	104.44
449.779	104.44
450	114.44
450.221	114.44
450.442	106.44
450.662	101.44
450.883	123.44
451.104	114.44
451.324	86.44
451.545	110.44
451.766	109.44
451.986	101.44
452.207	125.44
452.428	97.44
452.648	113.44
452.869	102.44
453.089	111.44
453.31	101.44
453.53	100.44
453.751	91.44
453.971	93.44
454.192	103.44
454.412	101.44
454.633	117.44
454.853	99.44
455.073	93.44
455.294	88.44
455.514	98.44
455.734	105.44
455.955	95.44
456.175	102.44
456.395	102.44
456.616	103.44
456.836	98.44
457.056	88.44
457.276	82.44
457.497	110.44
457.717	104.44
457.937	100.44
458.157	89.44
458.377	110.44
458.598	97.44
458.818	89.44
459.038	85.44
459.258	71.44
459.478	81.44
459.698	88.44
459.918	99.44
460.138	101.44
460.358	103.44
460.578	94.44
460.798	100.44
461.018	105.44
461.238	99.44
461.458	94.44
461.678	98.44
461.898	93.44
462.118	93.44
462.338	96.44
462.558	87.44
462.777	103.44
462.997	100.44
463.217	94.44
463.437	94.44
463.657	99.44
463.876	92.44
464.096	105.44
464.316	111.44
464.536	104.44
464.755	97.44
464.975	106.44
465.195	92.44
465.414	95.44
465.634	98.44
465.854	106.44
466.073	97.44
466.293	104.44
466.512	108.44
466.732	93.44
466.951	108.44
467.171	107.44
467.391	105.44
467.61	104.44
467.829	109.44
468.049	122.44
468.268	100.44
468.488	102.44
468.707	117.44
468.927	90.44
469.146	107.44
469.365	119.44
469.585	120.44
469.804	128.44
470.023	101.44
470.243	120.44
470.462	112.44
470.681	117.44
470.901	120.44
471.12	115.44
471.339	123.44
471.558	106.44
471.777	108.44
471.997	114.44
472.216	110.44
472.435	94.44
472.654	94.44
472.873	92.44
473.092	103.44
473.311	115.44
473.53	114.44
473.749	109.44
473.968	101.44
474.187	99.44
474.406	100.44
474.625	100.44
474.844	109.44
475.063	106.44
475.282	103.44
475.501	111.44
475.72	104.44
475.939	96.44
476.158	101.44
476.377	110.44
476.596	96.44
476.814	97.44
477.033	91.44
477.252	100.44
477.471	95.44
477.69	96.44
477.908	110.44
478.127	112.44
478.346	119.44
478.564	118.44
478.783	113.44
479.002	115.44
479.22	116.44
479.439	114.44
479.658	91.44
479.876	98.44
480.095	100.44
480.313	108.44
480.532	95.44
480.751	97.44
480.969	78.44
481.188	104.44
481.406	100.44
481.624	99.44
481.843	101.44
482.061	93.44
482.28	98.44
482.498	97.44
482.717	100.44
482.935	94.44
483.153	110.44
483.372	131.44
483.59	108.44
483.808	107.44
484.027	111.44
484.245	104.44
484.463	108.44
484.681	126.44
484.9	115.44
485.118	117.44
485.336	126.44
485.554	95.44
485.772	90.44
485.99	87.44
486.209	115.44
486.427	102.44
486.645	94.44
486.863	102.44
487.081	120.44
487.299	131.44
487.517	114.44
487.735	119.44
487.953	121.44
488.171	114.44
488.389	128.44
488.607	138.44
488.825	100.44
489.043	118.44
489.261	107.44
489.479	118.44
489.696	116.44
489.914	120.44
490.132	128.44
490.35	112.44
490.568	122.44
490.786	125.44
491.003	107.44
491.221	107.44
491.439	132.44
491.657	142.44
491.874	134.44
492.092	159.44
492.31	142.44
492.527	155.44
492.745	146.44
492.963	132.44
493.18	143.44
493.398	153.44
493.615	125.44
493.833	130.44
494.05	134.44
494.268	126.44
494.485	132.44
494.703	126.44
494.92	121.44
495.138	144.44
495.355	144.44
495.573	132.44
495.79	121.44
496.008	121.44
496.225	119.44
496.442	133.44
496.66	153.44
496.877	128.44
497.094	130.44
497.312	122.44
497.529	111.44
497.746	110.44
497.963	116.44
498.181	101.44
498.398	98.44
498.615	99.44
498.832	94.44
499.049	103.44
499.267	116.44
499.484	118.44
499.701	111.44
499.918	108.44
500.135	109.44
500.352	124.44
500.569	103.44
500.786	116.44
501.003	127.44
501.22	112.44
501.437	112.44
501.654	113.44
501.871	116.44
502.088	111.44
502.305	107.44
502.522	104.44
502.739	122.44
502.956	111.44
503.172	108.44
503.389	111.44
503.606	103.44
503.823	105.44
504.04	107.44
504.256	117.44
504.473	109.44
504.69	115.44
504.907	118.44
505.123	102.44
505.34	97.44
505.557	104.44
505.773	103.44
505.99	114.44
506.207	105.44
506.423	111.44
506.64	104.44
506.856	106.44
507.073	90.44
507.289	120.44
507.506	108.44
507.722	96.44
507.939	103.44
508.155	100.44
508.372	101.44
508.588	106.44
508.805	100.44
509.021	116.44
509.238	93.44
509.454	93.44
509.67	98.44
509.887	94.44
510.103	89.44
510.319	102.44
510.536	79.44
510.752	87.44
510.968	82.44
511.184	88.44
511.401	87.44
511.617	98.44
511.833	95.44
512.049	81.44
512.265	87.44
512.481	86.44
512.698	91.44
512.914	82.44
513.13	92.44
513.346	91.44
513.562	94.44
513.778	84.44
513.994	85.44
514.21	84.44
514.426	83.44
514.642	95.44
514.858	92.44
515.074	91.44
515.29	90.44
515.506	91.44
515.721	80.44
515.937	85.44
516.153	75.44
516.369	96.44
516.585	93.44
516.801	94.44
517.016	89.44
517.232	87.44
517.448	87.44
517.664	91.44
517.879	88.44
518.095	98.44
518.311	84.44
518.527	90.44
518.742	96.44
518.958	101.44
519.173	96.44
519.389	98.44
519.605	106.44
519.82	88.44
520.036	98.44
520.251	94.44
520.467	93.44
520.682	103.44
520.898	87.44
521.113	77.44
521.329	81.44
521.544	98.44
521.76	80.44
521.975	99.44
522.19	104.44
522.406	90.44
522.621	78.44
522.836	87.44
523.052	87.44
523.267	100.44
523.482	93.44
523.698	105.44
523.913	124.44
524.128	119.44
524.343	109.44
524.559	99.44
524.774	95.44
524.989	95.44
525.204	101.44
525.419	100.44
525.634	92.44
525.849	91.44
526.064	110.44
526.28	86.44
526.495	94.44
526.71	99.44
526.925	87.44
527.14	81.44
527.355	80.44
527.57	90.44
527.785	98.44
527.999	95.44
528.214	102.44
528.429	115.44
528.644	98.44
528.859	104.44
529.074	108.44
529.289	127.44
529.503	128.44
529.718	118.44
529.933	109.44
530.148	101.44
530.363	82.44
530.577	101.44
530.792	89.44
531.007	87.44
531.221	73.44
531.436	90.44
531.651	92.44
531.865	98.44
532.08	92.44
532.295	97.44
532.509	94.44
532.724	90.44
532.938	86.44
533.153	105.44
533.367	89.44
533.582	111.44
533.796	102.44
534.011	91.44
534.225	77.44
534.44	93.44
534.654	82.44
534.868	71.44
535.083	93.44
535.297	93.44
535.511	104.44
535.726	103.44
535.94	91.44
536.154	93.44
536.369	98.44
536.583	86.44
536.797	87.44
537.011	94.44
537.225	95.44
537.44	93.44
537.654	90.44
537.868	93.44
538.082	88.44
538.296	92.44
538.51	108.44
538.724	100.44
538.938	87.44
539.153	101.44
539.367	127.44
539.581	105.44
539.795	108.44
540.009	111.44
540.222	101.44
540.436	95.44
540.65	104.44
540.864	114.44
541.078	132.44
541.292	114.44
541.506	123.44
541.72	124.44
541.934	133.44
542.147	150.44
542.361	117.44
542.575	114.44
542.789	129.44
543.002	115.44
543.216	101.44
543.43	116.44
543.644	116.44
543.857	109.44
544.071	128.44
544.285	130.44
544.498	119.44
544.712	111.44
544.925	122.44
545.139	124.44
545.352	135.44
545.566	132.44
545.779	116.44
545.993	130.44
546.206	130.44
546.42	121.44
546.633	130.44
546.847	123.44
547.06	130.44
547.274	122.44
547.487	130.44
547.7	123.44
547.914	130.44
548.127	116.44
548.34	121.44
548.554	123.44
548.767	121.44
548.98	116.44
549.193	107.44
549.407	111.44
549.62	112.44
549.833	130.44
550.046	112.44
550.259	122.44
550.473	112.44
550.686	126.44
550.899	106.44
551.112	107.44
551.325	115.44
551.538	118.44
551.751	107.44
551.964	105.44
552.177	101.44
552.39	95.44
552.603	106.44
552.816	130.44
553.029	110.44
553.242	116.44
553.455	124.44
553.667	126.44
553.88	137.44
554.093	109.44
554.306	99.44
554.519	138.44
554.732	127.44
554.944	117.44
555.157	112.44
555.37	126.44
555.583	110.44
555.795	123.44
556.008	122.44
556.221	112.44
556.433	120.44
556.646	115.44
556.859	115.44
557.071	99.44
557.284	108.44
557.496	117.44
557.709	120.44
557.921	120.44
558.134	115.44
558.346	124.44
558.559	118.44
558.771	110.44
558.984	119.44
559.196	115.44
559.409	110.44
559.621	113.44
559.833	108.44
560.046	114.44
560.258	116.44
560.47	110.44
560.683	120.44
560.895	101.44
561.107	110.44
561.32	105.44
561.532	95.44
561.744	102.44
561.956	99.44
562.168	101.44
562.381	109.44
562.593	115.44
562.805	122.44
563.017	106.44
563.229	110.44
563.441	117.44
563.653	111.44
563.865	100.44
564.077	96.44
564.289	104.44
564.501	104.44
564.713	101.44
564.925	97.44
565.137	103.44
565.349	105.44
565.561	108.44
565.773	92.44
565.985	106.44
566.197	94.44
566.408	102.44
566.62	107.44
566.832	111.44
567.044	112.44
567.255	105.44
567.467	94.44
567.679	105.44
567.891	92.44
568.102	97.44
568.314	89.44
568.526	88.44
568.737	101.44
568.949	86.44
569.161	82.44
569.372	89.44
569.584	92.44
569.795	87.44
570.007	93.44
570.218	100.44
570.43	93.44
570.641	88.44
570.853	94.44
571.064	94.44
571.276	102.44
571.487	92.44
571.698	83.44
571.91	102.44
572.121	80.44
572.333	92.44
572.544	88.44
572.755	90.44
572.966	89.44
573.178	86.44
573.389	86.44
573.6	76.44
573.811	90.44
574.023	86.44
574.234	87.44
574.445	93.44
574.656	95.44
574.867	91.44
575.078	90.44
575.289	90.44
575.501	103.44
575.712	82.44
575.923	88.44
576.134	86.44
576.345	100.44
576.556	84.44
576.767	85.44
576.978	95.44
577.188	100.44
577.399	95.44
577.61	98.44
577.821	98.44
578.032	103.44
578.243	107.44
578.454	101.44
578.665	87.44
578.875	84.44
579.086	85.44
579.297	106.44
579.508	98.44
579.718	92.44
579.929	100.44
580.14	84.44
580.35	89.44
580.561	84.44
580.772	95.44
580.982	96.44
581.193	88.44
581.403	89.44
581.614	102.44
581.825	83.44
582.035	85.44
582.246	103.44
582.456	93.44
582.667	82.44
582.877	79.44
583.087	96.44
583.298	99.44
583.508	86.44
583.719	96.44
583.929	84.44
584.139	92.44
584.35	90.44
584.56	92.44
584.77	95.44
584.981	91.44
585.191	78.44
585.401	86.44
585.611	81.44
585.821	78.44
586.032	94.44
586.242	86.44
586.452	89.44
586.662	89.44
586.872	80.44
587.082	93.44
587.292	78.44
587.502	85.44
587.713	91.44
587.923	78.44
588.133	108.44
588.343	93.44
588.553	89.44
588.762	92.44
588.972	78.44
589.182	77.44
589.392	80.44
589.602	83.44
589.812	89.44
590.022	98.44
590.232	90.44
590.441	91.44
590.651	96.44
590.861	98.44
591.071	85.44
591.281	94.44
591.49	87.44
591.7	88.44
591.91	89.44
592.119	81.44
592.329	83.44
592.539	91.44
592.748	90.44
592.958	82.44
593.167	90.44
593.377	80.44
593.587	107.44
593.796	82.44
594.006	91.44
594.215	89.44
594.424	79.44
594.634	73.44
594.843	94.44
595.053	80.44
595.262	96.44
595.472	98.44
595.681	79.44
595.89	101.44
596.1	88.44
596.309	74.44
596.518	94.44
596.727	82.44
596.937	98.44
597.146	87.44
597.355	91.44
597.564	92.44
597.774	94.44
597.983	85.44
598.192	81.44
598.401	82.44
598.61	87.44
598.819	99.44
599.028	91.44
599.237	76.44
599.446	95.44
599.655	90.44
599.864	102.44
600.073	81.44
600.282	97.44
600.491	100.44
600.7	84.44
600.909	80.44
601.118	98.44
601.327	76.44
601.536	104.44
601.745	82.44
601.953	95.44
602.162	105.44
602.371	104.44
602.58	99.44
602.789	103.44
602.997	87.44
603.206	80.44
603.415	106.44
603.623	100.44
603.832	109.44
604.041	93.44
604.249	85.44
604.458	93.44
604.666	102.44
604.875	95.44
605.084	108.44
605.292	112.44
605.501	87.44
605.709	108.44
605.918	95.44
606.126	109.44
606.334	106.44
606.543	96.44
606.751	99.44
606.96	106.44
607.168	91.44
607.376	90.44
607.585	110.44
607.793	100.44
608.001	99.44
608.21	104.44
608.418	88.44
608.626	110.44
608.834	103.44
609.043	103.44
609.251	111.44
609.459	96.44
609.667	103.44
609.875	105.44
610.083	97.44
610.291	111.44
610.499	100.44
610.707	112.44
610.916	100.44
611.124	109.44
611.332	98.44
611.54	96.44
611.748	93.44
611.955	98.44
612.163	109.44
612.371	118.44
612.579	109.44
612.787	101.44
612.995	113.44
613.203	111.44
613.411	106.44
613.618	95.44
613.826	104.44
614.034	108.44
614.242	103.44
614.449	101.44
614.657	95.44
614.865	105.44
615.072	90.44
615.28	99.44
615.488	85.44
615.695	88.44
615.903	93.44
616.111	95.44
616.318	97.44
616.526	95.44
616.733	97.44
616.941	98.44
617.148	93.44
617.356	93.44
617.563	93.44
617.771	87.44
617.978	112.44
618.185	103.44
618.393	104.44
618.6	117.44
618.807	90.44
619.015	107.44
619.222	91.44
619.429	85.44
619.637	99.44
619.844	101.44
620.051	84.44
620.258	82.44
620.466	105.44
620.673	92.44
620.88	100.44
621.087	90.44
621.294	85.44
621.501	92.44
621.708	88.44
621.915	99.44
622.122	106.44
622.329	107.44
622.536	92.44
622.743	95.44
622.95	81.44
623.157	96.44
623.364	114.44
623.571	102.44
623.778	89.44
623.985	96.44
624.192	98.44
624.399	95.44
624.606	105.44
624.812	92.44
625.019	94.44
625.226	99.44
625.433	109.44
625.639	100.44
625.846	90.44
626.053	99.44
626.259	100.44
626.466	80.44
626.673	94.44
626.879	86.44
627.086	97.44
627.293	106.44
627.499	99.44
627.706	100.44
627.912	89.44
628.119	94.44
628.325	107.44
628.532	106.44
628.738	90.44
628.945	90.44
629.151	92.44
629.357	95.44
629.564	88.44
629.77	90.44
629.976	100.44
630.183	81.44
630.389	90.44
630.595	89.44
630.802	101.44
631.008	108.44
631.214	100.44
631.42	95.44
631.627	100.44
631.833	100.44
632.039	104.44
632.245	86.44
632.451	99.44
632.657	108.44
632.863	84.44
633.069	93.44
633.275	91.44
633.481	84.44
633.688	93.44
633.893	92.44
634.099	92.44
634.305	88.44
634.511	84.44
634.717	97.44
634.923	92.44
635.129	94.44
635.335	78.44
635.541	82.44
635.747	96.44
635.952	97.44
636.158	84.44
636.364	87.44
636.57	100.44
636.775	90.44
636.981	99.44
637.187	95.44
637.392	92.44
637.598	87.44
637.804	84.44
638.009	87.44
638.215	103.44
638.421	98.44
638.626	83.44
638.832	91.44
639.037	91.44
639.243	88.44
639.448	95.44
639.654	94.44
639.859	78.44
640.065	98.44
640.27	106.44
640.475	92.44
640.681	93.44
640.886	99.44
641.091	82.44
641.297	85.44
641.502	98.44
641.707	102.44
641.913	89.44
642.118	94.44
642.323	80.44
642.528	100.44
642.733	94.44
642.939	96.44
643.144	94.44
643.349	110.44
643.554	95.44
643.759	106.44
643.964	100.44
644.169	100.44
644.374	74.44
644.579	94.44
644.784	99.44
644.989	108.44
645.194	101.44
645.399	90.44
645.604	90.44
645.809	94.44
646.014	100.44
646.219	84.44
646.423	78.44
646.628	95.44
646.833	89.44
647.038	82.44
647.243	100.44
647.447	97.44
647.652	98.44
647.857	93.44
648.062	88.44
648.266	85.44
648.471	87.44
648.676	101.44
648.88	106.44
649.085	93.44
649.289	97.44
649.494	92.44
649.698	95.44
649.903	83.44
650.107	94.44
650.312	91.44
650.516	74.44
650.721	99.44
650.925	78.44
651.13	102.44
651.334	95.44
651.539	93.44
651.743	90.44
651.947	84.44
652.152	98.44
652.356	82.44
652.56	98.44
652.764	94.44
652.969	94.44
653.173	108.44
653.377	90.44
653.581	90.44
653.785	91.44
653.99	105.44
654.194	100.44
654.398	99.44
654.602	99.44
654.806	85.44
655.01	101.44
655.214	95.44
655.418	84.44
655.622	86.44
655.826	87.44
656.03	90.44
656.234	94.44
656.438	79.44
656.642	84.44
656.846	83.44
657.049	92.44
657.253	90.44
657.457	94.44
657.661	82.44
657.865	92.44
658.068	85.44
658.272	93.44
658.476	85.44
658.68	91.44
658.883	80.44
659.087	78.44
659.291	99.44
659.494	93.44
659.698	88.44
659.901	74.44
660.105	89.44
660.309	74.44
660.512	90.44
660.716	88.44
660.919	80.44
661.123	106.44
661.326	91.44
661.53	89.44
661.733	83.44
661.936	93.44
662.14	87.44
662.343	89.44
662.546	77.44
662.75	72.44
662.953	86.44
663.156	89.44
663.36	75.44
663.563	69.44
663.766	81.44
663.969	79.44
664.173	85.44
664.376	86.44
664.579	94.44
664.782	82.44
664.985	95.44
665.188	88.44
665.391	88.44
665.594	93.44
665.797	83.44
666	87.44
666.203	86.44
666.406	90.44
666.609	90.44
666.812	88.44
667.015	96.44
667.218	102.44
667.421	95.44
667.624	85.44
667.827	90.44
668.03	86.44
668.232	75.44
668.435	83.44
668.638	82.44
668.841	93.44
669.043	89.44
669.246	84.44
669.449	86.44
669.651	82.44
669.854	80.44
670.057	96.44
670.259	84.44
670.462	96.44
670.665	88.44
670.867	93.44
671.07	87.44
671.272	85.44
671.475	79.44
671.677	83.44
671.88	70.44
672.082	84.44
672.284	74.44
672.487	81.44
672.689	99.44
672.892	86.44
