Data from Location3.07152019.Energy5.Lamp.07192019.3%Agarose_HRD10591_15-19-47-272.txt Node
Date: Fri Jul 19 15:19:47 EDT 2019
User: cochatt
Spectrometer: HR+D1059
Trigger mode: 1
Integration Time (sec): 1.000000E-1
Scans to average: 1
Electric dark correction enabled: true
Nonlinearity correction enabled: false
Boxcar width: 0
XAxis mode: Wavelengths
Number of Pixels in Spectrum: 2048
>>>>>Begin Spectral Data<<<<<
223.165	-28.38
223.4	-28.38
223.635	-28.38
223.869	-14.38
224.104	-12.38
224.338	-21.38
224.573	-16.38
224.808	-16.38
225.042	-22.38
225.277	5.62
225.511	8.62
225.746	-7.38
225.98	-1.38
226.215	10.62
226.449	14.62
226.683	25.62
226.918	35.62
227.152	39.62
227.387	27.62
227.621	28.62
227.856	44.62
228.09	44.62
228.324	51.62
228.559	53.62
228.793	70.62
229.027	65.62
229.262	63.62
229.496	69.62
229.73	66.62
229.964	73.62
230.199	83.62
230.433	87.62
230.667	81.62
230.901	68.62
231.136	91.62
231.37	85.62
231.604	80.62
231.838	86.62
232.072	87.62
232.306	84.62
232.541	96.62
232.775	99.62
233.009	100.62
233.243	80.62
233.477	95.62
233.711	72.62
233.945	83.62
234.179	85.62
234.413	106.62
234.647	79.62
234.881	91.62
235.115	84.62
235.349	69.62
235.583	83.62
235.817	80.62
236.051	86.62
236.285	81.62
236.519	86.62
236.753	82.62
236.987	82.62
237.221	85.62
237.455	82.62
237.689	92.62
237.922	62.62
238.156	77.62
238.39	90.62
238.624	76.62
238.858	87.62
239.091	64.62
239.325	77.62
239.559	76.62
239.793	72.62
240.027	79.62
240.26	69.62
240.494	76.62
240.728	86.62
240.961	70.62
241.195	84.62
241.429	74.62
241.662	74.62
241.896	81.62
242.13	72.62
242.363	79.62
242.597	74.62
242.83	76.62
243.064	81.62
243.298	76.62
243.531	75.62
243.765	76.62
243.998	63.62
244.232	82.62
244.465	87.62
244.699	85.62
244.932	83.62
245.166	68.62
245.399	82.62
245.633	82.62
245.866	72.62
246.099	83.62
246.333	76.62
246.566	95.62
246.8	81.62
247.033	56.62
247.266	88.62
247.5	80.62
247.733	65.62
247.966	71.62
248.2	75.62
248.433	72.62
248.666	80.62
248.899	90.62
249.133	77.62
249.366	86.62
249.599	86.62
249.832	63.62
250.066	81.62
250.299	66.62
250.532	85.62
250.765	82.62
250.998	83.62
251.231	73.62
251.465	67.62
251.698	74.62
251.931	87.62
252.164	77.62
252.397	73.62
252.63	66.62
252.863	74.62
253.096	82.62
253.329	83.62
253.562	91.62
253.795	70.62
254.028	79.62
254.261	65.62
254.494	83.62
254.727	71.62
254.96	75.62
255.193	78.62
255.426	72.62
255.659	89.62
255.892	82.62
256.124	81.62
256.357	85.62
256.59	73.62
256.823	83.62
257.056	79.62
257.289	85.62
257.521	75.62
257.754	76.62
257.987	77.62
258.22	77.62
258.452	78.62
258.685	73.62
258.918	86.62
259.151	74.62
259.383	87.62
259.616	84.62
259.849	81.62
260.081	86.62
260.314	74.62
260.547	82.62
260.779	76.62
261.012	77.62
261.244	78.62
261.477	108.62
261.71	86.62
261.942	86.62
262.175	77.62
262.407	79.62
262.64	82.62
262.872	90.62
263.105	73.62
263.337	88.62
263.57	85.62
263.802	100.62
264.035	75.62
264.267	83.62
264.499	69.62
264.732	88.62
264.964	80.62
265.197	77.62
265.429	78.62
265.661	63.62
265.894	92.62
266.126	81.62
266.358	83.62
266.591	84.62
266.823	70.62
267.055	85.62
267.287	86.62
267.52	71.62
267.752	80.62
267.984	83.62
268.216	72.62
268.448	62.62
268.681	88.62
268.913	80.62
269.145	91.62
269.377	84.62
269.609	93.62
269.841	67.62
270.073	69.62
270.306	78.62
270.538	78.62
270.77	83.62
271.002	72.62
271.234	90.62
271.466	78.62
271.698	71.62
271.93	82.62
272.162	88.62
272.394	77.62
272.626	69.62
272.858	79.62
273.09	83.62
273.322	87.62
273.553	83.62
273.785	88.62
274.017	80.62
274.249	89.62
274.481	81.62
274.713	78.62
274.945	82.62
275.176	85.62
275.408	84.62
275.64	83.62
275.872	63.62
276.104	90.62
276.335	85.62
276.567	76.62
276.799	83.62
277.031	84.62
277.262	90.62
277.494	65.62
277.726	92.62
277.957	84.62
278.189	77.62
278.421	96.62
278.652	92.62
278.884	87.62
279.115	87.62
279.347	77.62
279.579	78.62
279.81	67.62
280.042	74.62
280.273	77.62
280.505	73.62
280.736	91.62
280.968	95.62
281.199	96.62
281.431	87.62
281.662	77.62
281.894	77.62
282.125	96.62
282.356	69.62
282.588	78.62
282.819	91.62
283.051	73.62
283.282	85.62
283.513	85.62
283.745	83.62
283.976	69.62
284.207	95.62
284.439	75.62
284.67	81.62
284.901	91.62
285.132	94.62
285.364	98.62
285.595	82.62
285.826	81.62
286.057	81.62
286.288	77.62
286.52	82.62
286.751	81.62
286.982	82.62
287.213	88.62
287.444	89.62
287.675	82.62
287.906	90.62
288.138	88.62
288.369	90.62
288.6	82.62
288.831	87.62
289.062	92.62
289.293	87.62
289.524	84.62
289.755	92.62
289.986	72.62
290.217	82.62
290.448	97.62
290.679	83.62
290.91	82.62
291.141	84.62
291.371	80.62
291.602	93.62
291.833	90.62
292.064	98.62
292.295	84.62
292.526	84.62
292.757	87.62
292.987	78.62
293.218	79.62
293.449	80.62
293.68	83.62
293.91	90.62
294.141	88.62
294.372	73.62
294.603	86.62
294.833	85.62
295.064	73.62
295.295	84.62
295.525	78.62
295.756	93.62
295.987	93.62
296.217	84.62
296.448	100.62
296.679	87.62
296.909	93.62
297.14	99.62
297.37	83.62
297.601	94.62
297.831	81.62
298.062	97.62
298.292	72.62
298.523	87.62
298.753	88.62
298.984	90.62
299.214	88.62
299.445	72.62
299.675	83.62
299.905	85.62
300.136	80.62
300.366	80.62
300.597	69.62
300.827	84.62
301.057	89.62
301.288	85.62
301.518	83.62
301.748	78.62
301.979	82.62
302.209	89.62
302.439	77.62
302.669	82.62
302.9	77.62
303.13	87.62
303.36	83.62
303.59	84.62
303.82	89.62
304.051	89.62
304.281	83.62
304.511	73.62
304.741	75.62
304.971	89.62
305.201	76.62
305.431	89.62
305.661	85.62
305.891	79.62
306.121	88.62
306.352	67.62
306.582	93.62
306.812	79.62
307.042	77.62
307.272	86.62
307.502	79.62
307.731	90.62
307.961	100.62
308.191	81.62
308.421	83.62
308.651	97.62
308.881	91.62
309.111	89.62
309.341	82.62
309.571	89.62
309.8	78.62
310.03	83.62
310.26	88.62
310.49	99.62
310.72	91.62
310.949	99.62
311.179	94.62
311.409	85.62
311.639	91.62
311.868	92.62
312.098	95.62
312.328	87.62
312.557	93.62
312.787	93.62
313.017	68.62
313.246	87.62
313.476	83.62
313.706	88.62
313.935	72.62
314.165	82.62
314.394	86.62
314.624	73.62
314.853	90.62
315.083	82.62
315.312	84.62
315.542	87.62
315.771	89.62
316.001	90.62
316.23	87.62
316.46	81.62
316.689	71.62
316.919	89.62
317.148	95.62
317.377	95.62
317.607	74.62
317.836	85.62
318.065	94.62
318.295	73.62
318.524	96.62
318.753	95.62
318.983	79.62
319.212	91.62
319.441	73.62
319.67	81.62
319.9	92.62
320.129	80.62
320.358	82.62
320.587	82.62
320.816	81.62
321.046	93.62
321.275	83.62
321.504	87.62
321.733	76.62
321.962	88.62
322.191	93.62
322.42	95.62
322.649	95.62
322.878	92.62
323.108	81.62
323.337	91.62
323.566	100.62
323.795	89.62
324.024	94.62
324.253	75.62
324.482	73.62
324.71	69.62
324.939	91.62
325.168	92.62
325.397	67.62
325.626	89.62
325.855	89.62
326.084	87.62
326.313	88.62
326.542	86.62
326.77	70.62
326.999	101.62
327.228	84.62
327.457	88.62
327.686	98.62
327.914	80.62
328.143	75.62
328.372	89.62
328.6	90.62
328.829	82.62
329.058	86.62
329.287	86.62
329.515	71.62
329.744	88.62
329.972	80.62
330.201	91.62
330.43	87.62
330.658	86.62
330.887	92.62
331.115	87.62
331.344	111.62
331.572	88.62
331.801	86.62
332.03	86.62
332.258	84.62
332.486	83.62
332.715	91.62
332.943	76.62
333.172	83.62
333.4	83.62
333.629	82.62
333.857	81.62
334.085	85.62
334.314	92.62
334.542	83.62
334.771	93.62
334.999	77.62
335.227	80.62
335.455	80.62
335.684	85.62
335.912	92.62
336.14	93.62
336.369	87.62
336.597	88.62
336.825	81.62
337.053	76.62
337.281	76.62
337.51	101.62
337.738	96.62
337.966	82.62
338.194	84.62
338.422	90.62
338.65	82.62
338.878	82.62
339.106	79.62
339.334	93.62
339.562	87.62
339.79	83.62
340.018	90.62
340.246	80.62
340.474	78.62
340.702	84.62
340.93	79.62
341.158	91.62
341.386	92.62
341.614	76.62
341.842	83.62
342.07	81.62
342.298	78.62
342.526	79.62
342.754	83.62
342.981	102.62
343.209	83.62
343.437	81.62
343.665	91.62
343.893	69.62
344.12	96.62
344.348	84.62
344.576	85.62
344.804	85.62
345.031	86.62
345.259	82.62
345.487	81.62
345.714	96.62
345.942	93.62
346.17	95.62
346.397	85.62
346.625	88.62
346.853	82.62
347.08	77.62
347.308	90.62
347.535	82.62
347.763	76.62
347.99	86.62
348.218	83.62
348.445	97.62
348.673	86.62
348.9	92.62
349.128	99.62
349.355	77.62
349.583	103.62
349.81	81.62
350.037	88.62
350.265	85.62
350.492	83.62
350.72	74.62
350.947	91.62
351.174	88.62
351.402	79.62
351.629	77.62
351.856	88.62
352.083	71.62
352.311	77.62
352.538	88.62
352.765	86.62
352.992	80.62
353.22	79.62
353.447	92.62
353.674	76.62
353.901	90.62
354.128	96.62
354.355	74.62
354.583	67.62
354.81	76.62
355.037	85.62
355.264	69.62
355.491	71.62
355.718	92.62
355.945	104.62
356.172	94.62
356.399	87.62
356.626	81.62
356.853	98.62
357.08	89.62
357.307	83.62
357.534	82.62
357.761	87.62
357.988	89.62
358.215	77.62
358.441	86.62
358.668	72.62
358.895	73.62
359.122	96.62
359.349	82.62
359.576	61.62
359.802	85.62
360.029	76.62
360.256	90.62
360.483	86.62
360.709	82.62
360.936	94.62
361.163	88.62
361.39	79.62
361.616	87.62
361.843	70.62
362.07	74.62
362.296	94.62
362.523	80.62
362.749	88.62
362.976	84.62
363.203	86.62
363.429	83.62
363.656	101.62
363.882	76.62
364.109	84.62
364.335	83.62
364.562	76.62
364.788	76.62
365.015	95.62
365.241	83.62
365.468	96.62
365.694	83.62
365.92	62.62
366.147	87.62
366.373	79.62
366.599	83.62
366.826	64.62
367.052	75.62
367.278	69.62
367.505	75.62
367.731	90.62
367.957	86.62
368.184	80.62
368.41	74.62
368.636	91.62
368.862	91.62
369.089	75.62
369.315	87.62
369.541	88.62
369.767	77.62
369.993	85.62
370.219	79.62
370.445	89.62
370.672	73.62
370.898	76.62
371.124	86.62
371.35	91.62
371.576	89.62
371.802	95.62
372.028	95.62
372.254	81.62
372.48	84.62
372.706	68.62
372.932	81.62
373.158	86.62
373.384	89.62
373.61	92.62
373.835	91.62
374.061	103.62
374.287	84.62
374.513	77.62
374.739	73.62
374.965	59.62
375.191	68.62
375.416	77.62
375.642	90.62
375.868	86.62
376.094	72.62
376.319	77.62
376.545	84.62
376.771	97.62
376.997	87.62
377.222	98.62
377.448	84.62
377.674	75.62
377.899	77.62
378.125	76.62
378.35	93.62
378.576	82.62
378.802	92.62
379.027	84.62
379.253	74.62
379.478	93.62
379.704	82.62
379.929	78.62
380.155	77.62
380.38	90.62
380.606	88.62
380.831	98.62
381.057	81.62
381.282	87.62
381.507	78.62
381.733	90.62
381.958	81.62
382.184	89.62
382.409	69.62
382.634	93.62
382.86	85.62
383.085	101.62
383.31	84.62
383.535	81.62
383.761	91.62
383.986	55.62
384.211	81.62
384.436	72.62
384.662	77.62
384.887	95.62
385.112	81.62
385.337	72.62
385.562	89.62
385.787	100.62
386.013	95.62
386.238	86.62
386.463	91.62
386.688	74.62
386.913	78.62
387.138	95.62
387.363	86.62
387.588	84.62
387.813	90.62
388.038	83.62
388.263	89.62
388.488	77.62
388.713	98.62
388.938	89.62
389.163	96.62
389.387	77.62
389.612	72.62
389.837	88.62
390.062	67.62
390.287	85.62
390.512	82.62
390.736	71.62
390.961	89.62
391.186	90.62
391.411	90.62
391.636	86.62
391.86	100.62
392.085	77.62
392.31	77.62
392.534	91.62
392.759	92.62
392.984	92.62
393.208	80.62
393.433	92.62
393.658	92.62
393.882	74.62
394.107	87.62
394.331	84.62
394.556	85.62
394.78	87.62
395.005	81.62
395.229	88.62
395.454	87.62
395.678	100.62
395.903	98.62
396.127	86.62
396.352	97.62
396.576	90.62
396.801	88.62
397.025	76.62
397.249	86.62
397.474	96.62
397.698	94.62
397.922	93.62
398.147	81.62
398.371	87.62
398.595	86.62
398.82	90.62
399.044	77.62
399.268	92.62
399.492	77.62
399.717	91.62
399.941	77.62
400.165	84.62
400.389	89.62
400.613	93.62
400.837	88.62
401.062	89.62
401.286	82.62
401.51	81.62
401.734	85.62
401.958	101.62
402.182	81.62
402.406	97.62
402.63	81.62
402.854	77.62
403.078	100.62
403.302	81.62
403.526	99.62
403.75	90.62
403.974	96.62
404.198	98.62
404.422	81.62
404.645	70.62
404.869	104.62
405.093	85.62
405.317	99.62
405.541	97.62
405.765	95.62
405.988	91.62
406.212	88.62
406.436	91.62
406.66	91.62
406.883	96.62
407.107	87.62
407.331	93.62
407.555	85.62
407.778	98.62
408.002	80.62
408.226	103.62
408.449	75.62
408.673	80.62
408.896	89.62
409.12	96.62
409.344	96.62
409.567	77.62
409.791	105.62
410.014	91.62
410.238	81.62
410.461	101.62
410.685	95.62
410.908	81.62
411.132	96.62
411.355	85.62
411.578	85.62
411.802	93.62
412.025	104.62
412.249	97.62
412.472	87.62
412.695	99.62
412.919	87.62
413.142	100.62
413.365	86.62
413.589	93.62
413.812	90.62
414.035	85.62
414.258	104.62
414.482	98.62
414.705	96.62
414.928	97.62
415.151	89.62
415.374	86.62
415.597	89.62
415.821	109.62
416.044	92.62
416.267	85.62
416.49	87.62
416.713	88.62
416.936	81.62
417.159	86.62
417.382	82.62
417.605	104.62
417.828	100.62
418.051	90.62
418.274	97.62
418.497	107.62
418.72	82.62
418.943	112.62
419.166	102.62
419.389	97.62
419.611	97.62
419.834	108.62
420.057	97.62
420.28	99.62
420.503	89.62
420.726	85.62
420.948	89.62
421.171	107.62
421.394	80.62
421.617	85.62
421.839	96.62
422.062	97.62
422.285	92.62
422.507	105.62
422.73	93.62
422.953	91.62
423.175	96.62
423.398	97.62
423.621	107.62
423.843	84.62
424.066	86.62
424.288	97.62
424.511	90.62
424.733	107.62
424.956	106.62
425.178	98.62
425.401	92.62
425.623	91.62
425.846	108.62
426.068	88.62
426.291	88.62
426.513	94.62
426.735	108.62
426.958	100.62
427.18	111.62
427.402	92.62
427.625	104.62
427.847	98.62
428.069	98.62
428.292	115.62
428.514	91.62
428.736	95.62
428.958	87.62
429.181	92.62
429.403	99.62
429.625	87.62
429.847	104.62
430.069	102.62
430.292	92.62
430.514	90.62
430.736	83.62
430.958	107.62
431.18	94.62
431.402	107.62
431.624	109.62
431.846	100.62
432.068	91.62
432.29	84.62
432.512	81.62
432.734	89.62
432.956	103.62
433.178	104.62
433.4	113.62
433.622	104.62
433.844	78.62
434.066	101.62
434.287	92.62
434.509	89.62
434.731	82.62
434.953	92.62
435.175	90.62
435.397	67.62
435.618	87.62
435.84	85.62
436.062	95.62
436.284	97.62
436.505	87.62
436.727	88.62
436.949	87.62
437.17	98.62
437.392	106.62
437.614	103.62
437.835	74.62
438.057	87.62
438.278	79.62
438.5	100.62
438.721	95.62
438.943	87.62
439.165	102.62
439.386	99.62
439.608	111.62
439.829	89.62
440.05	88.62
440.272	97.62
440.493	104.62
440.715	110.62
440.936	110.62
441.158	112.62
441.379	97.62
441.6	104.62
441.822	112.62
442.043	100.62
442.264	87.62
442.486	90.62
442.707	98.62
442.928	89.62
443.149	101.62
443.371	98.62
443.592	98.62
443.813	113.62
444.034	90.62
444.255	89.62
444.476	108.62
444.698	104.62
444.919	91.62
445.14	242.62
445.361	154.62
445.582	90.62
445.803	96.62
446.024	116.62
446.245	109.62
446.466	98.62
446.687	106.62
446.908	121.62
447.129	110.62
447.35	108.62
447.571	103.62
447.792	106.62
448.013	98.62
448.234	99.62
448.455	92.62
448.675	101.62
448.896	113.62
449.117	100.62
449.338	95.62
449.559	102.62
449.779	101.62
450	87.62
450.221	92.62
450.442	95.62
450.662	103.62
450.883	110.62
451.104	96.62
451.324	108.62
451.545	88.62
451.766	97.62
451.986	89.62
452.207	100.62
452.428	91.62
452.648	93.62
452.869	95.62
453.089	100.62
453.31	96.62
453.53	82.62
453.751	83.62
453.971	92.62
454.192	84.62
454.412	73.62
454.633	89.62
454.853	87.62
455.073	97.62
455.294	87.62
455.514	85.62
455.734	99.62
455.955	90.62
456.175	84.62
456.395	89.62
456.616	101.62
456.836	93.62
457.056	80.62
457.276	100.62
457.497	83.62
457.717	81.62
457.937	92.62
458.157	85.62
458.377	89.62
458.598	81.62
458.818	88.62
459.038	82.62
459.258	97.62
459.478	99.62
459.698	101.62
459.918	93.62
460.138	76.62
460.358	101.62
460.578	98.62
460.798	82.62
461.018	93.62
461.238	92.62
461.458	104.62
461.678	86.62
461.898	100.62
462.118	100.62
462.338	100.62
462.558	96.62
462.777	97.62
462.997	88.62
463.217	87.62
463.437	94.62
463.657	87.62
463.876	86.62
464.096	92.62
464.316	90.62
464.536	88.62
464.755	103.62
464.975	108.62
465.195	89.62
465.414	90.62
465.634	89.62
465.854	80.62
466.073	102.62
466.293	98.62
466.512	100.62
466.732	90.62
466.951	91.62
467.171	94.62
467.391	108.62
467.61	102.62
467.829	99.62
468.049	96.62
468.268	114.62
468.488	95.62
468.707	102.62
468.927	111.62
469.146	95.62
469.365	108.62
469.585	100.62
469.804	107.62
470.023	96.62
470.243	110.62
470.462	97.62
470.681	92.62
470.901	102.62
471.12	96.62
471.339	99.62
471.558	97.62
471.777	97.62
471.997	100.62
472.216	93.62
472.435	88.62
472.654	89.62
472.873	102.62
473.092	89.62
473.311	81.62
473.53	82.62
473.749	97.62
473.968	93.62
474.187	94.62
474.406	85.62
474.625	95.62
474.844	102.62
475.063	90.62
475.282	98.62
475.501	92.62
475.72	99.62
475.939	101.62
476.158	99.62
476.377	88.62
476.596	91.62
476.814	87.62
477.033	91.62
477.252	94.62
477.471	107.62
477.69	90.62
477.908	101.62
478.127	100.62
478.346	100.62
478.564	107.62
478.783	92.62
479.002	107.62
479.22	99.62
479.439	95.62
479.658	96.62
479.876	88.62
480.095	94.62
480.313	97.62
480.532	101.62
480.751	91.62
480.969	89.62
481.188	84.62
481.406	87.62
481.624	89.62
481.843	72.62
482.061	88.62
482.28	97.62
482.498	99.62
482.717	100.62
482.935	104.62
483.153	98.62
483.372	111.62
483.59	90.62
483.808	97.62
484.027	95.62
484.245	104.62
484.463	102.62
484.681	120.62
484.9	102.62
485.118	83.62
485.336	97.62
485.554	94.62
485.772	89.62
485.99	81.62
486.209	96.62
486.427	87.62
486.645	86.62
486.863	89.62
487.081	97.62
487.299	89.62
487.517	100.62
487.735	111.62
487.953	108.62
488.171	111.62
488.389	116.62
488.607	116.62
488.825	99.62
489.043	98.62
489.261	101.62
489.479	84.62
489.696	91.62
489.914	107.62
490.132	99.62
490.35	109.62
490.568	107.62
490.786	94.62
491.003	108.62
491.221	91.62
491.439	113.62
491.657	121.62
491.874	116.62
492.092	141.62
492.31	127.62
492.527	121.62
492.745	113.62
492.963	114.62
493.18	101.62
493.398	119.62
493.615	117.62
493.833	127.62
494.05	121.62
494.268	111.62
494.485	115.62
494.703	111.62
494.92	107.62
495.138	111.62
495.355	125.62
495.573	103.62
495.79	103.62
496.008	120.62
496.225	120.62
496.442	96.62
496.66	108.62
496.877	112.62
497.094	105.62
497.312	117.62
497.529	99.62
497.746	95.62
497.963	114.62
498.181	108.62
498.398	90.62
498.615	96.62
498.832	96.62
499.049	109.62
499.267	99.62
499.484	113.62
499.701	104.62
499.918	115.62
500.135	114.62
500.352	100.62
500.569	102.62
500.786	115.62
501.003	96.62
501.22	115.62
501.437	102.62
501.654	116.62
501.871	108.62
502.088	105.62
502.305	112.62
502.522	106.62
502.739	95.62
502.956	104.62
503.172	85.62
503.389	93.62
503.606	88.62
503.823	95.62
504.04	80.62
504.256	93.62
504.473	92.62
504.69	101.62
504.907	108.62
505.123	105.62
505.34	89.62
505.557	99.62
505.773	93.62
505.99	92.62
506.207	90.62
506.423	95.62
506.64	96.62
506.856	83.62
507.073	89.62
507.289	76.62
507.506	89.62
507.722	91.62
507.939	102.62
508.155	97.62
508.372	100.62
508.588	96.62
508.805	89.62
509.021	93.62
509.238	97.62
509.454	89.62
509.67	84.62
509.887	89.62
510.103	91.62
510.319	95.62
510.536	78.62
510.752	83.62
510.968	79.62
511.184	86.62
511.401	83.62
511.617	90.62
511.833	85.62
512.049	90.62
512.265	84.62
512.481	85.62
512.698	88.62
512.914	99.62
513.13	96.62
513.346	89.62
513.562	92.62
513.778	84.62
513.994	94.62
514.21	86.62
514.426	89.62
514.642	85.62
514.858	90.62
515.074	84.62
515.29	90.62
515.506	93.62
515.721	97.62
515.937	92.62
516.153	93.62
516.369	88.62
516.585	98.62
516.801	91.62
517.016	98.62
517.232	76.62
517.448	96.62
517.664	78.62
517.879	89.62
518.095	91.62
518.311	84.62
518.527	90.62
518.742	77.62
518.958	98.62
519.173	95.62
519.389	89.62
519.605	98.62
519.82	92.62
520.036	96.62
520.251	86.62
520.467	103.62
520.682	91.62
520.898	101.62
521.113	89.62
521.329	98.62
521.544	81.62
521.76	89.62
521.975	96.62
522.19	95.62
522.406	92.62
522.621	93.62
522.836	93.62
523.052	107.62
523.267	97.62
523.482	91.62
523.698	96.62
523.913	96.62
524.128	92.62
524.343	100.62
524.559	92.62
524.774	85.62
524.989	98.62
525.204	104.62
525.419	113.62
525.634	81.62
525.849	83.62
526.064	90.62
526.28	87.62
526.495	90.62
526.71	87.62
526.925	80.62
527.14	84.62
527.355	80.62
527.57	88.62
527.785	83.62
527.999	79.62
528.214	89.62
528.429	107.62
528.644	85.62
528.859	94.62
529.074	86.62
529.289	95.62
529.503	107.62
529.718	95.62
529.933	99.62
530.148	89.62
530.363	95.62
530.577	71.62
530.792	78.62
531.007	88.62
531.221	100.62
531.436	89.62
531.651	94.62
531.865	94.62
532.08	83.62
532.295	81.62
532.509	73.62
532.724	87.62
532.938	91.62
533.153	80.62
533.367	91.62
533.582	102.62
533.796	90.62
534.011	95.62
534.225	77.62
534.44	92.62
534.654	88.62
534.868	87.62
535.083	80.62
535.297	84.62
535.511	86.62
535.726	93.62
535.94	101.62
536.154	85.62
536.369	84.62
536.583	82.62
536.797	92.62
537.011	90.62
537.225	100.62
537.44	93.62
537.654	85.62
537.868	96.62
538.082	90.62
538.296	87.62
538.51	88.62
538.724	108.62
538.938	100.62
539.153	87.62
539.367	92.62
539.581	71.62
539.795	98.62
540.009	101.62
540.222	92.62
540.436	96.62
540.65	102.62
540.864	98.62
541.078	113.62
541.292	105.62
541.506	108.62
541.72	100.62
541.934	117.62
542.147	116.62
542.361	105.62
542.575	115.62
542.789	69.62
543.002	105.62
543.216	100.62
543.43	101.62
543.644	114.62
543.857	109.62
544.071	100.62
544.285	114.62
544.498	121.62
544.712	110.62
544.925	109.62
545.139	101.62
545.352	91.62
545.566	109.62
545.779	124.62
545.993	121.62
546.206	109.62
546.42	111.62
546.633	116.62
546.847	111.62
547.06	103.62
547.274	94.62
547.487	119.62
547.7	103.62
547.914	106.62
548.127	108.62
548.34	96.62
548.554	92.62
548.767	112.62
548.98	99.62
549.193	123.62
549.407	112.62
549.62	106.62
549.833	104.62
550.046	104.62
550.259	106.62
550.473	107.62
550.686	101.62
550.899	100.62
551.112	100.62
551.325	97.62
551.538	97.62
551.751	95.62
551.964	99.62
552.177	98.62
552.39	96.62
552.603	96.62
552.816	92.62
553.029	112.62
553.242	125.62
553.455	113.62
553.667	120.62
553.88	111.62
554.093	95.62
554.306	117.62
554.519	114.62
554.732	100.62
554.944	102.62
555.157	102.62
555.37	106.62
555.583	98.62
555.795	95.62
556.008	102.62
556.221	85.62
556.433	92.62
556.646	89.62
556.859	84.62
557.071	95.62
557.284	99.62
557.496	99.62
557.709	114.62
557.921	103.62
558.134	118.62
558.346	109.62
558.559	102.62
558.771	90.62
558.984	93.62
559.196	102.62
559.409	91.62
559.621	101.62
559.833	86.62
560.046	98.62
560.258	106.62
560.47	99.62
560.683	101.62
560.895	99.62
561.107	103.62
561.32	90.62
561.532	100.62
561.744	97.62
561.956	100.62
562.168	100.62
562.381	105.62
562.593	103.62
562.805	96.62
563.017	97.62
563.229	89.62
563.441	100.62
563.653	101.62
563.865	95.62
564.077	99.62
564.289	106.62
564.501	95.62
564.713	94.62
564.925	84.62
565.137	96.62
565.349	105.62
565.561	109.62
565.773	99.62
565.985	87.62
566.197	100.62
566.408	90.62
566.62	87.62
566.832	90.62
567.044	112.62
567.255	84.62
567.467	89.62
567.679	88.62
567.891	90.62
568.102	102.62
568.314	91.62
568.526	90.62
568.737	97.62
568.949	91.62
569.161	83.62
569.372	78.62
569.584	80.62
569.795	97.62
570.007	83.62
570.218	78.62
570.43	81.62
570.641	89.62
570.853	91.62
571.064	86.62
571.276	96.62
571.487	91.62
571.698	77.62
571.91	92.62
572.121	84.62
572.333	96.62
572.544	94.62
572.755	86.62
572.966	89.62
573.178	82.62
573.389	75.62
573.6	76.62
573.811	91.62
574.023	91.62
574.234	82.62
574.445	76.62
574.656	87.62
574.867	78.62
575.078	83.62
575.289	77.62
575.501	91.62
575.712	84.62
575.923	91.62
576.134	83.62
576.345	86.62
576.556	82.62
576.767	88.62
576.978	90.62
577.188	74.62
577.399	88.62
577.61	77.62
577.821	87.62
578.032	94.62
578.243	80.62
578.454	84.62
578.665	94.62
578.875	83.62
579.086	85.62
579.297	87.62
579.508	79.62
579.718	76.62
579.929	75.62
580.14	95.62
580.35	88.62
580.561	70.62
580.772	81.62
580.982	82.62
581.193	81.62
581.403	93.62
581.614	92.62
581.825	82.62
582.035	87.62
582.246	85.62
582.456	78.62
582.667	91.62
582.877	83.62
583.087	73.62
583.298	84.62
583.508	91.62
583.719	91.62
583.929	100.62
584.139	72.62
584.35	99.62
584.56	87.62
584.77	93.62
584.981	95.62
585.191	93.62
585.401	70.62
585.611	79.62
585.821	93.62
586.032	93.62
586.242	81.62
586.452	74.62
586.662	88.62
586.872	80.62
587.082	80.62
587.292	73.62
587.502	88.62
587.713	97.62
587.923	77.62
588.133	75.62
588.343	80.62
588.553	81.62
588.762	92.62
588.972	78.62
589.182	67.62
589.392	91.62
589.602	79.62
589.812	80.62
590.022	90.62
590.232	87.62
590.441	87.62
590.651	86.62
590.861	101.62
591.071	107.62
591.281	82.62
591.49	88.62
591.7	90.62
591.91	83.62
592.119	86.62
592.329	107.62
592.539	77.62
592.748	84.62
592.958	100.62
593.167	74.62
593.377	80.62
593.587	103.62
593.796	87.62
594.006	79.62
594.215	96.62
594.424	86.62
594.634	96.62
594.843	81.62
595.053	80.62
595.262	83.62
595.472	79.62
595.681	80.62
595.89	89.62
596.1	80.62
596.309	78.62
596.518	106.62
596.727	94.62
596.937	77.62
597.146	87.62
597.355	83.62
597.564	80.62
597.774	91.62
597.983	92.62
598.192	77.62
598.401	74.62
598.61	86.62
598.819	77.62
599.028	95.62
599.237	85.62
599.446	87.62
599.655	90.62
599.864	87.62
600.073	92.62
600.282	82.62
600.491	86.62
600.7	90.62
600.909	84.62
601.118	80.62
601.327	87.62
601.536	92.62
601.745	84.62
601.953	96.62
602.162	89.62
602.371	85.62
602.58	87.62
602.789	94.62
602.997	83.62
603.206	96.62
603.415	76.62
603.623	76.62
603.832	84.62
604.041	101.62
604.249	99.62
604.458	94.62
604.666	88.62
604.875	84.62
605.084	91.62
605.292	92.62
605.501	99.62
605.709	78.62
605.918	98.62
606.126	89.62
606.334	97.62
606.543	92.62
606.751	99.62
606.96	91.62
607.168	83.62
607.376	100.62
607.585	85.62
607.793	101.62
608.001	95.62
608.21	87.62
608.418	101.62
608.626	96.62
608.834	107.62
609.043	98.62
609.251	97.62
609.459	82.62
609.667	115.62
609.875	91.62
610.083	99.62
610.291	101.62
610.499	98.62
610.707	97.62
610.916	103.62
611.124	105.62
611.332	102.62
611.54	102.62
611.748	81.62
611.955	85.62
612.163	80.62
612.371	98.62
612.579	87.62
612.787	91.62
612.995	81.62
613.203	94.62
613.411	100.62
613.618	97.62
613.826	96.62
614.034	86.62
614.242	92.62
614.449	96.62
614.657	105.62
614.865	89.62
615.072	90.62
615.28	91.62
615.488	107.62
615.695	82.62
615.903	90.62
616.111	100.62
616.318	105.62
616.526	104.62
616.733	92.62
616.941	95.62
617.148	92.62
617.356	91.62
617.563	89.62
617.771	93.62
617.978	90.62
618.185	86.62
618.393	111.62
618.6	90.62
618.807	79.62
619.015	84.62
619.222	84.62
619.429	91.62
619.637	97.62
619.844	92.62
620.051	99.62
620.258	87.62
620.466	83.62
620.673	102.62
620.88	96.62
621.087	92.62
621.294	91.62
621.501	99.62
621.708	87.62
621.915	97.62
622.122	84.62
622.329	91.62
622.536	86.62
622.743	84.62
622.95	88.62
623.157	91.62
623.364	100.62
623.571	85.62
623.778	94.62
623.985	97.62
624.192	80.62
624.399	95.62
624.606	91.62
624.812	103.62
625.019	78.62
625.226	82.62
625.433	93.62
625.639	92.62
625.846	90.62
626.053	65.62
626.259	66.62
626.466	94.62
626.673	90.62
626.879	96.62
627.086	84.62
627.293	91.62
627.499	111.62
627.706	83.62
627.912	98.62
628.119	95.62
628.325	85.62
628.532	92.62
628.738	84.62
628.945	84.62
629.151	84.62
629.357	83.62
629.564	89.62
629.77	96.62
629.976	81.62
630.183	77.62
630.389	98.62
630.595	97.62
630.802	95.62
631.008	105.62
631.214	89.62
631.42	100.62
631.627	94.62
631.833	81.62
632.039	101.62
632.245	86.62
632.451	78.62
632.657	91.62
632.863	87.62
633.069	84.62
633.275	83.62
633.481	97.62
633.688	103.62
633.893	105.62
634.099	91.62
634.305	63.62
634.511	91.62
634.717	94.62
634.923	91.62
635.129	86.62
635.335	77.62
635.541	86.62
635.747	94.62
635.952	84.62
636.158	87.62
636.364	79.62
636.57	87.62
636.775	87.62
636.981	88.62
637.187	87.62
637.392	89.62
637.598	82.62
637.804	89.62
638.009	97.62
638.215	82.62
638.421	82.62
638.626	89.62
638.832	84.62
639.037	79.62
639.243	91.62
639.448	97.62
639.654	95.62
639.859	98.62
640.065	88.62
640.27	95.62
640.475	87.62
640.681	84.62
640.886	96.62
641.091	86.62
641.297	87.62
641.502	84.62
641.707	97.62
641.913	101.62
642.118	89.62
642.323	89.62
642.528	92.62
642.733	83.62
642.939	93.62
643.144	91.62
643.349	97.62
643.554	97.62
643.759	90.62
643.964	98.62
644.169	69.62
644.374	84.62
644.579	101.62
644.784	91.62
644.989	98.62
645.194	95.62
645.399	79.62
645.604	90.62
645.809	92.62
646.014	103.62
646.219	92.62
646.423	98.62
646.628	77.62
646.833	82.62
647.038	89.62
647.243	92.62
647.447	80.62
647.652	81.62
647.857	85.62
648.062	95.62
648.266	88.62
648.471	79.62
648.676	73.62
648.88	85.62
649.085	100.62
649.289	77.62
649.494	93.62
649.698	87.62
649.903	98.62
650.107	80.62
650.312	89.62
650.516	88.62
650.721	89.62
650.925	86.62
651.13	75.62
651.334	98.62
651.539	88.62
651.743	94.62
651.947	78.62
652.152	93.62
652.356	91.62
652.56	94.62
652.764	79.62
652.969	83.62
653.173	77.62
653.377	97.62
653.581	85.62
653.785	87.62
653.99	76.62
654.194	72.62
654.398	88.62
654.602	71.62
654.806	88.62
655.01	81.62
655.214	80.62
655.418	99.62
655.622	86.62
655.826	93.62
656.03	93.62
656.234	103.62
656.438	71.62
656.642	83.62
656.846	89.62
657.049	94.62
657.253	89.62
657.457	97.62
657.661	89.62
657.865	88.62
658.068	78.62
658.272	90.62
658.476	81.62
658.68	81.62
658.883	83.62
659.087	74.62
659.291	77.62
659.494	84.62
659.698	91.62
659.901	91.62
660.105	86.62
660.309	87.62
660.512	69.62
660.716	88.62
660.919	79.62
661.123	81.62
661.326	80.62
661.53	70.62
661.733	82.62
661.936	70.62
662.14	75.62
662.343	70.62
662.546	74.62
662.75	77.62
662.953	80.62
663.156	84.62
663.36	91.62
663.563	86.62
663.766	80.62
663.969	74.62
664.173	67.62
664.376	73.62
664.579	83.62
664.782	72.62
664.985	78.62
665.188	79.62
665.391	95.62
665.594	78.62
665.797	68.62
666	85.62
666.203	77.62
666.406	84.62
666.609	83.62
666.812	81.62
667.015	76.62
667.218	71.62
667.421	88.62
667.624	73.62
667.827	77.62
668.03	75.62
668.232	89.62
668.435	82.62
668.638	79.62
668.841	71.62
669.043	72.62
669.246	76.62
669.449	70.62
669.651	92.62
669.854	81.62
670.057	88.62
670.259	69.62
670.462	82.62
670.665	86.62
670.867	73.62
671.07	88.62
671.272	77.62
671.475	96.62
671.677	86.62
671.88	83.62
672.082	76.62
672.284	80.62
672.487	76.62
672.689	84.62
672.892	80.62
