Data from Location3.07152019.Energy5.Lamp.07192019.3%Agarose_HRD10591_15-19-03-270.txt Node
Date: Fri Jul 19 15:19:03 EDT 2019
User: cochatt
Spectrometer: HR+D1059
Trigger mode: 1
Integration Time (sec): 1.000000E-1
Scans to average: 1
Electric dark correction enabled: true
Nonlinearity correction enabled: false
Boxcar width: 0
XAxis mode: Wavelengths
Number of Pixels in Spectrum: 2048
>>>>>Begin Spectral Data<<<<<
223.165	-9.88
223.4	-9.88
223.635	-9.88
223.869	-15.88
224.104	-6.88
224.338	0.12
224.573	-21.88
224.808	-11.88
225.042	-21.88
225.277	-12.88
225.511	-16.88
225.746	3.12
225.98	-0.88
226.215	16.12
226.449	19.12
226.683	19.12
226.918	29.12
227.152	32.12
227.387	38.12
227.621	40.12
227.856	38.12
228.09	35.12
228.324	51.12
228.559	48.12
228.793	61.12
229.027	66.12
229.262	64.12
229.496	61.12
229.73	58.12
229.964	68.12
230.199	79.12
230.433	68.12
230.667	59.12
230.901	58.12
231.136	58.12
231.37	80.12
231.604	89.12
231.838	109.12
232.072	77.12
232.306	73.12
232.541	86.12
232.775	66.12
233.009	71.12
233.243	80.12
233.477	80.12
233.711	83.12
233.945	85.12
234.179	73.12
234.413	71.12
234.647	62.12
234.881	80.12
235.115	70.12
235.349	77.12
235.583	73.12
235.817	66.12
236.051	73.12
236.285	77.12
236.519	81.12
236.753	92.12
236.987	73.12
237.221	74.12
237.455	76.12
237.689	79.12
237.922	73.12
238.156	64.12
238.39	74.12
238.624	73.12
238.858	68.12
239.091	85.12
239.325	65.12
239.559	69.12
239.793	78.12
240.027	82.12
240.26	81.12
240.494	74.12
240.728	84.12
240.961	81.12
241.195	72.12
241.429	76.12
241.662	61.12
241.896	78.12
242.13	86.12
242.363	87.12
242.597	83.12
242.83	65.12
243.064	70.12
243.298	85.12
243.531	73.12
243.765	78.12
243.998	60.12
244.232	74.12
244.465	79.12
244.699	86.12
244.932	90.12
245.166	68.12
245.399	76.12
245.633	67.12
245.866	78.12
246.099	83.12
246.333	79.12
246.566	83.12
246.8	89.12
247.033	76.12
247.266	79.12
247.5	68.12
247.733	65.12
247.966	66.12
248.2	86.12
248.433	77.12
248.666	77.12
248.899	74.12
249.133	69.12
249.366	74.12
249.599	74.12
249.832	71.12
250.066	78.12
250.299	74.12
250.532	67.12
250.765	82.12
250.998	85.12
251.231	82.12
251.465	63.12
251.698	78.12
251.931	87.12
252.164	72.12
252.397	75.12
252.63	83.12
252.863	75.12
253.096	68.12
253.329	76.12
253.562	73.12
253.795	64.12
254.028	75.12
254.261	93.12
254.494	83.12
254.727	74.12
254.96	74.12
255.193	83.12
255.426	76.12
255.659	78.12
255.892	83.12
256.124	60.12
256.357	79.12
256.59	83.12
256.823	94.12
257.056	77.12
257.289	85.12
257.521	81.12
257.754	88.12
257.987	86.12
258.22	72.12
258.452	77.12
258.685	75.12
258.918	97.12
259.151	84.12
259.383	74.12
259.616	71.12
259.849	69.12
260.081	79.12
260.314	70.12
260.547	88.12
260.779	80.12
261.012	73.12
261.244	78.12
261.477	60.12
261.71	73.12
261.942	74.12
262.175	59.12
262.407	67.12
262.64	83.12
262.872	88.12
263.105	85.12
263.337	88.12
263.57	79.12
263.802	84.12
264.035	77.12
264.267	77.12
264.499	79.12
264.732	96.12
264.964	78.12
265.197	95.12
265.429	77.12
265.661	76.12
265.894	83.12
266.126	83.12
266.358	77.12
266.591	75.12
266.823	81.12
267.055	74.12
267.287	81.12
267.52	77.12
267.752	89.12
267.984	81.12
268.216	75.12
268.448	96.12
268.681	65.12
268.913	73.12
269.145	68.12
269.377	77.12
269.609	81.12
269.841	91.12
270.073	74.12
270.306	75.12
270.538	66.12
270.77	75.12
271.002	76.12
271.234	91.12
271.466	78.12
271.698	97.12
271.93	72.12
272.162	91.12
272.394	85.12
272.626	79.12
272.858	72.12
273.09	75.12
273.322	85.12
273.553	71.12
273.785	88.12
274.017	77.12
274.249	60.12
274.481	86.12
274.713	67.12
274.945	61.12
275.176	77.12
275.408	87.12
275.64	77.12
275.872	88.12
276.104	98.12
276.335	80.12
276.567	66.12
276.799	81.12
277.031	77.12
277.262	88.12
277.494	80.12
277.726	88.12
277.957	85.12
278.189	87.12
278.421	82.12
278.652	72.12
278.884	72.12
279.115	69.12
279.347	81.12
279.579	82.12
279.81	77.12
280.042	77.12
280.273	88.12
280.505	88.12
280.736	86.12
280.968	65.12
281.199	71.12
281.431	51.12
281.662	79.12
281.894	99.12
282.125	71.12
282.356	80.12
282.588	87.12
282.819	81.12
283.051	73.12
283.282	79.12
283.513	91.12
283.745	75.12
283.976	77.12
284.207	82.12
284.439	81.12
284.67	72.12
284.901	96.12
285.132	80.12
285.364	81.12
285.595	89.12
285.826	83.12
286.057	89.12
286.288	91.12
286.52	85.12
286.751	63.12
286.982	79.12
287.213	83.12
287.444	84.12
287.675	88.12
287.906	66.12
288.138	74.12
288.369	89.12
288.6	79.12
288.831	81.12
289.062	95.12
289.293	82.12
289.524	65.12
289.755	79.12
289.986	77.12
290.217	88.12
290.448	87.12
290.679	65.12
290.91	73.12
291.141	72.12
291.371	78.12
291.602	89.12
291.833	65.12
292.064	68.12
292.295	87.12
292.526	77.12
292.757	82.12
292.987	81.12
293.218	79.12
293.449	101.12
293.68	86.12
293.91	77.12
294.141	76.12
294.372	77.12
294.603	72.12
294.833	87.12
295.064	67.12
295.295	55.12
295.525	73.12
295.756	83.12
295.987	80.12
296.217	78.12
296.448	92.12
296.679	87.12
296.909	80.12
297.14	89.12
297.37	77.12
297.601	78.12
297.831	78.12
298.062	71.12
298.292	83.12
298.523	72.12
298.753	84.12
298.984	89.12
299.214	89.12
299.445	93.12
299.675	94.12
299.905	66.12
300.136	84.12
300.366	79.12
300.597	92.12
300.827	83.12
301.057	87.12
301.288	93.12
301.518	69.12
301.748	92.12
301.979	91.12
302.209	94.12
302.439	92.12
302.669	84.12
302.9	76.12
303.13	87.12
303.36	76.12
303.59	100.12
303.82	89.12
304.051	81.12
304.281	81.12
304.511	90.12
304.741	85.12
304.971	75.12
305.201	83.12
305.431	81.12
305.661	85.12
305.891	81.12
306.121	65.12
306.352	80.12
306.582	71.12
306.812	76.12
307.042	63.12
307.272	93.12
307.502	81.12
307.731	91.12
307.961	75.12
308.191	87.12
308.421	83.12
308.651	76.12
308.881	83.12
309.111	71.12
309.341	92.12
309.571	88.12
309.8	84.12
310.03	86.12
310.26	77.12
310.49	86.12
310.72	67.12
310.949	82.12
311.179	83.12
311.409	88.12
311.639	76.12
311.868	76.12
312.098	89.12
312.328	75.12
312.557	85.12
312.787	94.12
313.017	82.12
313.246	75.12
313.476	86.12
313.706	77.12
313.935	71.12
314.165	89.12
314.394	85.12
314.624	79.12
314.853	84.12
315.083	73.12
315.312	81.12
315.542	83.12
315.771	64.12
316.001	69.12
316.23	87.12
316.46	69.12
316.689	70.12
316.919	75.12
317.148	90.12
317.377	90.12
317.607	85.12
317.836	79.12
318.065	77.12
318.295	71.12
318.524	79.12
318.753	91.12
318.983	91.12
319.212	87.12
319.441	83.12
319.67	69.12
319.9	70.12
320.129	88.12
320.358	70.12
320.587	98.12
320.816	89.12
321.046	73.12
321.275	89.12
321.504	81.12
321.733	86.12
321.962	71.12
322.191	81.12
322.42	70.12
322.649	95.12
322.878	75.12
323.108	73.12
323.337	62.12
323.566	92.12
323.795	81.12
324.024	91.12
324.253	87.12
324.482	82.12
324.71	75.12
324.939	85.12
325.168	70.12
325.397	79.12
325.626	88.12
325.855	89.12
326.084	88.12
326.313	82.12
326.542	83.12
326.77	90.12
326.999	72.12
327.228	81.12
327.457	69.12
327.686	77.12
327.914	83.12
328.143	87.12
328.372	69.12
328.6	79.12
328.829	72.12
329.058	76.12
329.287	85.12
329.515	71.12
329.744	99.12
329.972	86.12
330.201	78.12
330.43	81.12
330.658	88.12
330.887	80.12
331.115	87.12
331.344	107.12
331.572	86.12
331.801	91.12
332.03	80.12
332.258	80.12
332.486	75.12
332.715	80.12
332.943	81.12
333.172	75.12
333.4	77.12
333.629	92.12
333.857	76.12
334.085	82.12
334.314	83.12
334.542	88.12
334.771	79.12
334.999	76.12
335.227	80.12
335.455	81.12
335.684	80.12
335.912	75.12
336.14	81.12
336.369	77.12
336.597	80.12
336.825	83.12
337.053	75.12
337.281	71.12
337.51	71.12
337.738	85.12
337.966	76.12
338.194	90.12
338.422	87.12
338.65	88.12
338.878	84.12
339.106	68.12
339.334	84.12
339.562	76.12
339.79	94.12
340.018	84.12
340.246	85.12
340.474	103.12
340.702	72.12
340.93	85.12
341.158	91.12
341.386	77.12
341.614	91.12
341.842	63.12
342.07	85.12
342.298	86.12
342.526	79.12
342.754	67.12
342.981	86.12
343.209	78.12
343.437	81.12
343.665	86.12
343.893	76.12
344.12	101.12
344.348	81.12
344.576	68.12
344.804	88.12
345.031	83.12
345.259	72.12
345.487	78.12
345.714	68.12
345.942	76.12
346.17	84.12
346.397	79.12
346.625	69.12
346.853	66.12
347.08	80.12
347.308	73.12
347.535	84.12
347.763	70.12
347.99	83.12
348.218	89.12
348.445	70.12
348.673	79.12
348.9	100.12
349.128	79.12
349.355	75.12
349.583	81.12
349.81	69.12
350.037	82.12
350.265	75.12
350.492	87.12
350.72	87.12
350.947	66.12
351.174	87.12
351.402	83.12
351.629	64.12
351.856	79.12
352.083	94.12
352.311	92.12
352.538	71.12
352.765	75.12
352.992	79.12
353.22	87.12
353.447	84.12
353.674	82.12
353.901	76.12
354.128	85.12
354.355	76.12
354.583	78.12
354.81	66.12
355.037	72.12
355.264	73.12
355.491	84.12
355.718	70.12
355.945	77.12
356.172	92.12
356.399	94.12
356.626	79.12
356.853	92.12
357.08	72.12
357.307	81.12
357.534	81.12
357.761	68.12
357.988	80.12
358.215	77.12
358.441	73.12
358.668	75.12
358.895	90.12
359.122	67.12
359.349	76.12
359.576	80.12
359.802	81.12
360.029	86.12
360.256	79.12
360.483	84.12
360.709	84.12
360.936	83.12
361.163	90.12
361.39	75.12
361.616	80.12
361.843	81.12
362.07	78.12
362.296	94.12
362.523	77.12
362.749	92.12
362.976	66.12
363.203	77.12
363.429	67.12
363.656	77.12
363.882	66.12
364.109	91.12
364.335	78.12
364.562	79.12
364.788	77.12
365.015	74.12
365.241	71.12
365.468	63.12
365.694	77.12
365.92	77.12
366.147	86.12
366.373	81.12
366.599	79.12
366.826	93.12
367.052	73.12
367.278	81.12
367.505	77.12
367.731	71.12
367.957	85.12
368.184	76.12
368.41	91.12
368.636	74.12
368.862	81.12
369.089	86.12
369.315	70.12
369.541	76.12
369.767	93.12
369.993	70.12
370.219	84.12
370.445	74.12
370.672	73.12
370.898	84.12
371.124	74.12
371.35	94.12
371.576	81.12
371.802	96.12
372.028	79.12
372.254	86.12
372.48	79.12
372.706	71.12
372.932	89.12
373.158	77.12
373.384	91.12
373.61	87.12
373.835	92.12
374.061	77.12
374.287	92.12
374.513	96.12
374.739	80.12
374.965	70.12
375.191	84.12
375.416	92.12
375.642	70.12
375.868	86.12
376.094	82.12
376.319	78.12
376.545	73.12
376.771	80.12
376.997	79.12
377.222	77.12
377.448	88.12
377.674	76.12
377.899	70.12
378.125	87.12
378.35	72.12
378.576	81.12
378.802	79.12
379.027	79.12
379.253	100.12
379.478	80.12
379.704	89.12
379.929	80.12
380.155	73.12
380.38	74.12
380.606	79.12
380.831	88.12
381.057	84.12
381.282	76.12
381.507	84.12
381.733	88.12
381.958	94.12
382.184	84.12
382.409	90.12
382.634	75.12
382.86	72.12
383.085	84.12
383.31	75.12
383.535	85.12
383.761	78.12
383.986	81.12
384.211	81.12
384.436	80.12
384.662	77.12
384.887	91.12
385.112	84.12
385.337	77.12
385.562	71.12
385.787	77.12
386.013	79.12
386.238	96.12
386.463	83.12
386.688	71.12
386.913	86.12
387.138	72.12
387.363	79.12
387.588	73.12
387.813	82.12
388.038	86.12
388.263	83.12
388.488	100.12
388.713	85.12
388.938	77.12
389.163	82.12
389.387	84.12
389.612	87.12
389.837	77.12
390.062	71.12
390.287	67.12
390.512	70.12
390.736	77.12
390.961	69.12
391.186	75.12
391.411	67.12
391.636	82.12
391.86	80.12
392.085	80.12
392.31	82.12
392.534	78.12
392.759	80.12
392.984	82.12
393.208	84.12
393.433	88.12
393.658	82.12
393.882	88.12
394.107	88.12
394.331	82.12
394.556	65.12
394.78	79.12
395.005	83.12
395.229	86.12
395.454	93.12
395.678	102.12
395.903	96.12
396.127	103.12
396.352	87.12
396.576	84.12
396.801	93.12
397.025	94.12
397.249	83.12
397.474	85.12
397.698	73.12
397.922	91.12
398.147	78.12
398.371	89.12
398.595	92.12
398.82	88.12
399.044	83.12
399.268	89.12
399.492	94.12
399.717	100.12
399.941	85.12
400.165	93.12
400.389	70.12
400.613	90.12
400.837	76.12
401.062	91.12
401.286	77.12
401.51	88.12
401.734	79.12
401.958	72.12
402.182	72.12
402.406	88.12
402.63	70.12
402.854	90.12
403.078	71.12
403.302	88.12
403.526	72.12
403.75	81.12
403.974	76.12
404.198	88.12
404.422	103.12
404.645	85.12
404.869	86.12
405.093	86.12
405.317	72.12
405.541	79.12
405.765	88.12
405.988	98.12
406.212	91.12
406.436	88.12
406.66	83.12
406.883	82.12
407.107	82.12
407.331	93.12
407.555	82.12
407.778	100.12
408.002	83.12
408.226	91.12
408.449	80.12
408.673	92.12
408.896	69.12
409.12	84.12
409.344	88.12
409.567	93.12
409.791	103.12
410.014	98.12
410.238	87.12
410.461	90.12
410.685	85.12
410.908	88.12
411.132	98.12
411.355	88.12
411.578	87.12
411.802	84.12
412.025	80.12
412.249	83.12
412.472	85.12
412.695	94.12
412.919	92.12
413.142	94.12
413.365	92.12
413.589	84.12
413.812	94.12
414.035	88.12
414.258	90.12
414.482	83.12
414.705	83.12
414.928	80.12
415.151	89.12
415.374	82.12
415.597	85.12
415.821	83.12
416.044	83.12
416.267	83.12
416.49	78.12
416.713	101.12
416.936	108.12
417.159	74.12
417.382	93.12
417.605	98.12
417.828	88.12
418.051	77.12
418.274	72.12
418.497	98.12
418.72	86.12
418.943	95.12
419.166	88.12
419.389	87.12
419.611	89.12
419.834	87.12
420.057	83.12
420.28	95.12
420.503	91.12
420.726	95.12
420.948	108.12
421.171	111.12
421.394	104.12
421.617	94.12
421.839	101.12
422.062	103.12
422.285	94.12
422.507	100.12
422.73	101.12
422.953	94.12
423.175	94.12
423.398	93.12
423.621	83.12
423.843	104.12
424.066	92.12
424.288	102.12
424.511	103.12
424.733	87.12
424.956	84.12
425.178	87.12
425.401	86.12
425.623	95.12
425.846	93.12
426.068	82.12
426.291	102.12
426.513	93.12
426.735	98.12
426.958	83.12
427.18	88.12
427.402	98.12
427.625	77.12
427.847	101.12
428.069	87.12
428.292	93.12
428.514	93.12
428.736	74.12
428.958	79.12
429.181	100.12
429.403	89.12
429.625	91.12
429.847	91.12
430.069	86.12
430.292	89.12
430.514	100.12
430.736	82.12
430.958	88.12
431.18	82.12
431.402	84.12
431.624	95.12
431.846	92.12
432.068	83.12
432.29	73.12
432.512	91.12
432.734	88.12
432.956	75.12
433.178	92.12
433.4	91.12
433.622	96.12
433.844	91.12
434.066	83.12
434.287	83.12
434.509	74.12
434.731	79.12
434.953	79.12
435.175	108.12
435.397	105.12
435.618	84.12
435.84	77.12
436.062	93.12
436.284	77.12
436.505	70.12
436.727	83.12
436.949	100.12
437.17	93.12
437.392	97.12
437.614	86.12
437.835	83.12
438.057	78.12
438.278	101.12
438.5	82.12
438.721	84.12
438.943	95.12
439.165	89.12
439.386	100.12
439.608	94.12
439.829	93.12
440.05	91.12
440.272	96.12
440.493	79.12
440.715	105.12
440.936	99.12
441.158	90.12
441.379	94.12
441.6	98.12
441.822	87.12
442.043	93.12
442.264	93.12
442.486	81.12
442.707	94.12
442.928	99.12
443.149	83.12
443.371	108.12
443.592	99.12
443.813	97.12
444.034	88.12
444.255	111.12
444.476	87.12
444.698	93.12
444.919	94.12
445.14	221.12
445.361	164.12
445.582	95.12
445.803	100.12
446.024	93.12
446.245	103.12
446.466	95.12
446.687	100.12
446.908	84.12
447.129	94.12
447.35	102.12
447.571	114.12
447.792	86.12
448.013	86.12
448.234	92.12
448.455	91.12
448.675	98.12
448.896	99.12
449.117	96.12
449.338	82.12
449.559	87.12
449.779	79.12
450	92.12
450.221	109.12
450.442	93.12
450.662	97.12
450.883	93.12
451.104	97.12
451.324	92.12
451.545	77.12
451.766	95.12
451.986	75.12
452.207	81.12
452.428	86.12
452.648	93.12
452.869	87.12
453.089	79.12
453.31	83.12
453.53	87.12
453.751	91.12
453.971	82.12
454.192	72.12
454.412	87.12
454.633	99.12
454.853	91.12
455.073	96.12
455.294	81.12
455.514	84.12
455.734	76.12
455.955	86.12
456.175	77.12
456.395	91.12
456.616	86.12
456.836	86.12
457.056	86.12
457.276	99.12
457.497	84.12
457.717	84.12
457.937	83.12
458.157	79.12
458.377	84.12
458.598	75.12
458.818	84.12
459.038	79.12
459.258	91.12
459.478	64.12
459.698	82.12
459.918	82.12
460.138	88.12
460.358	84.12
460.578	85.12
460.798	76.12
461.018	87.12
461.238	83.12
461.458	75.12
461.678	81.12
461.898	83.12
462.118	83.12
462.338	69.12
462.558	84.12
462.777	85.12
462.997	89.12
463.217	73.12
463.437	80.12
463.657	86.12
463.876	97.12
464.096	86.12
464.316	70.12
464.536	90.12
464.755	74.12
464.975	91.12
465.195	94.12
465.414	97.12
465.634	89.12
465.854	80.12
466.073	91.12
466.293	111.12
466.512	99.12
466.732	95.12
466.951	93.12
467.171	82.12
467.391	89.12
467.61	98.12
467.829	93.12
468.049	84.12
468.268	112.12
468.488	107.12
468.707	109.12
468.927	85.12
469.146	97.12
469.365	102.12
469.585	102.12
469.804	101.12
470.023	84.12
470.243	104.12
470.462	96.12
470.681	96.12
470.901	104.12
471.12	83.12
471.339	113.12
471.558	88.12
471.777	85.12
471.997	99.12
472.216	95.12
472.435	83.12
472.654	97.12
472.873	84.12
473.092	84.12
473.311	86.12
473.53	80.12
473.749	101.12
473.968	107.12
474.187	88.12
474.406	83.12
474.625	92.12
474.844	104.12
475.063	100.12
475.282	94.12
475.501	83.12
475.72	107.12
475.939	99.12
476.158	85.12
476.377	83.12
476.596	88.12
476.814	90.12
477.033	95.12
477.252	103.12
477.471	86.12
477.69	96.12
477.908	91.12
478.127	99.12
478.346	105.12
478.564	93.12
478.783	95.12
479.002	94.12
479.22	87.12
479.439	85.12
479.658	78.12
479.876	83.12
480.095	77.12
480.313	84.12
480.532	76.12
480.751	88.12
480.969	88.12
481.188	83.12
481.406	106.12
481.624	85.12
481.843	77.12
482.061	87.12
482.28	82.12
482.498	87.12
482.717	95.12
482.935	87.12
483.153	89.12
483.372	86.12
483.59	90.12
483.808	108.12
484.027	89.12
484.245	99.12
484.463	105.12
484.681	113.12
484.9	97.12
485.118	101.12
485.336	102.12
485.554	97.12
485.772	85.12
485.99	88.12
486.209	86.12
486.427	76.12
486.645	81.12
486.863	94.12
487.081	108.12
487.299	100.12
487.517	97.12
487.735	95.12
487.953	115.12
488.171	115.12
488.389	107.12
488.607	104.12
488.825	85.12
489.043	98.12
489.261	92.12
489.479	86.12
489.696	92.12
489.914	98.12
490.132	103.12
490.35	108.12
490.568	111.12
490.786	110.12
491.003	95.12
491.221	99.12
491.439	98.12
491.657	116.12
491.874	97.12
492.092	131.12
492.31	142.12
492.527	131.12
492.745	117.12
492.963	110.12
493.18	112.12
493.398	107.12
493.615	93.12
493.833	101.12
494.05	107.12
494.268	112.12
494.485	116.12
494.703	120.12
494.92	103.12
495.138	109.12
495.355	110.12
495.573	124.12
495.79	109.12
496.008	105.12
496.225	119.12
496.442	97.12
496.66	109.12
496.877	96.12
497.094	90.12
497.312	98.12
497.529	99.12
497.746	111.12
497.963	98.12
498.181	99.12
498.398	94.12
498.615	96.12
498.832	95.12
499.049	92.12
499.267	95.12
499.484	97.12
499.701	98.12
499.918	107.12
500.135	97.12
500.352	91.12
500.569	89.12
500.786	86.12
501.003	88.12
501.22	93.12
501.437	95.12
501.654	93.12
501.871	98.12
502.088	96.12
502.305	104.12
502.522	93.12
502.739	91.12
502.956	87.12
503.172	78.12
503.389	88.12
503.606	86.12
503.823	85.12
504.04	100.12
504.256	98.12
504.473	99.12
504.69	91.12
504.907	86.12
505.123	85.12
505.34	76.12
505.557	95.12
505.773	97.12
505.99	93.12
506.207	94.12
506.423	89.12
506.64	88.12
506.856	93.12
507.073	91.12
507.289	94.12
507.506	77.12
507.722	97.12
507.939	88.12
508.155	97.12
508.372	92.12
508.588	84.12
508.805	103.12
509.021	89.12
509.238	83.12
509.454	95.12
509.67	89.12
509.887	71.12
510.103	88.12
510.319	73.12
510.536	75.12
510.752	82.12
510.968	96.12
511.184	80.12
511.401	85.12
511.617	80.12
511.833	83.12
512.049	84.12
512.265	72.12
512.481	87.12
512.698	88.12
512.914	82.12
513.13	74.12
513.346	94.12
513.562	97.12
513.778	80.12
513.994	83.12
514.21	71.12
514.426	88.12
514.642	83.12
514.858	93.12
515.074	90.12
515.29	73.12
515.506	82.12
515.721	83.12
515.937	77.12
516.153	90.12
516.369	92.12
516.585	77.12
516.801	83.12
517.016	90.12
517.232	90.12
517.448	88.12
517.664	83.12
517.879	89.12
518.095	87.12
518.311	92.12
518.527	79.12
518.742	91.12
518.958	84.12
519.173	96.12
519.389	80.12
519.605	75.12
519.82	82.12
520.036	83.12
520.251	96.12
520.467	84.12
520.682	77.12
520.898	92.12
521.113	77.12
521.329	78.12
521.544	77.12
521.76	87.12
521.975	76.12
522.19	81.12
522.406	97.12
522.621	65.12
522.836	80.12
523.052	93.12
523.267	75.12
523.482	86.12
523.698	80.12
523.913	100.12
524.128	89.12
524.343	86.12
524.559	85.12
524.774	91.12
524.989	81.12
525.204	96.12
525.419	96.12
525.634	85.12
525.849	95.12
526.064	79.12
526.28	88.12
526.495	73.12
526.71	77.12
526.925	73.12
527.14	83.12
527.355	82.12
527.57	79.12
527.785	86.12
527.999	92.12
528.214	75.12
528.429	100.12
528.644	97.12
528.859	97.12
529.074	94.12
529.289	98.12
529.503	101.12
529.718	98.12
529.933	76.12
530.148	92.12
530.363	81.12
530.577	75.12
530.792	91.12
531.007	68.12
531.221	94.12
531.436	100.12
531.651	81.12
531.865	83.12
532.08	91.12
532.295	86.12
532.509	98.12
532.724	75.12
532.938	77.12
533.153	84.12
533.367	88.12
533.582	84.12
533.796	94.12
534.011	92.12
534.225	86.12
534.44	90.12
534.654	79.12
534.868	84.12
535.083	92.12
535.297	90.12
535.511	75.12
535.726	77.12
535.94	78.12
536.154	92.12
536.369	72.12
536.583	78.12
536.797	76.12
537.011	78.12
537.225	95.12
537.44	84.12
537.654	73.12
537.868	79.12
538.082	84.12
538.296	94.12
538.51	87.12
538.724	81.12
538.938	75.12
539.153	80.12
539.367	85.12
539.581	100.12
539.795	87.12
540.009	96.12
540.222	87.12
540.436	91.12
540.65	91.12
540.864	94.12
541.078	102.12
541.292	99.12
541.506	118.12
541.72	127.12
541.934	114.12
542.147	115.12
542.361	111.12
542.575	113.12
542.789	107.12
543.002	96.12
543.216	94.12
543.43	98.12
543.644	103.12
543.857	100.12
544.071	100.12
544.285	103.12
544.498	113.12
544.712	110.12
544.925	97.12
545.139	104.12
545.352	100.12
545.566	109.12
545.779	103.12
545.993	114.12
546.206	107.12
546.42	97.12
546.633	100.12
546.847	114.12
547.06	115.12
547.274	115.12
547.487	112.12
547.7	109.12
547.914	115.12
548.127	102.12
548.34	101.12
548.554	101.12
548.767	100.12
548.98	93.12
549.193	111.12
549.407	108.12
549.62	117.12
549.833	84.12
550.046	107.12
550.259	98.12
550.473	104.12
550.686	96.12
550.899	114.12
551.112	95.12
551.325	93.12
551.538	89.12
551.751	92.12
551.964	83.12
552.177	85.12
552.39	100.12
552.603	111.12
552.816	107.12
553.029	94.12
553.242	102.12
553.455	111.12
553.667	93.12
553.88	103.12
554.093	95.12
554.306	100.12
554.519	111.12
554.732	98.12
554.944	89.12
555.157	98.12
555.37	102.12
555.583	93.12
555.795	101.12
556.008	93.12
556.221	91.12
556.433	111.12
556.646	97.12
556.859	78.12
557.071	86.12
557.284	87.12
557.496	104.12
557.709	103.12
557.921	116.12
558.134	111.12
558.346	100.12
558.559	94.12
558.771	84.12
558.984	100.12
559.196	106.12
559.409	100.12
559.621	82.12
559.833	95.12
560.046	103.12
560.258	78.12
560.47	96.12
560.683	90.12
560.895	86.12
561.107	90.12
561.32	90.12
561.532	94.12
561.744	95.12
561.956	96.12
562.168	72.12
562.381	111.12
562.593	100.12
562.805	118.12
563.017	88.12
563.229	83.12
563.441	79.12
563.653	94.12
563.865	89.12
564.077	96.12
564.289	100.12
564.501	95.12
564.713	111.12
564.925	83.12
565.137	80.12
565.349	92.12
565.561	88.12
565.773	92.12
565.985	97.12
566.197	96.12
566.408	96.12
566.62	97.12
566.832	105.12
567.044	79.12
567.255	95.12
567.467	84.12
567.679	90.12
567.891	91.12
568.102	100.12
568.314	94.12
568.526	80.12
568.737	90.12
568.949	82.12
569.161	75.12
569.372	71.12
569.584	92.12
569.795	70.12
570.007	85.12
570.218	89.12
570.43	76.12
570.641	84.12
570.853	88.12
571.064	83.12
571.276	85.12
571.487	90.12
571.698	90.12
571.91	87.12
572.121	86.12
572.333	97.12
572.544	88.12
572.755	86.12
572.966	79.12
573.178	73.12
573.389	84.12
573.6	83.12
573.811	77.12
574.023	65.12
574.234	81.12
574.445	77.12
574.656	87.12
574.867	86.12
575.078	83.12
575.289	87.12
575.501	77.12
575.712	71.12
575.923	65.12
576.134	70.12
576.345	91.12
576.556	68.12
576.767	83.12
576.978	71.12
577.188	98.12
577.399	76.12
577.61	74.12
577.821	79.12
578.032	82.12
578.243	72.12
578.454	90.12
578.665	85.12
578.875	75.12
579.086	81.12
579.297	77.12
579.508	84.12
579.718	81.12
579.929	80.12
580.14	84.12
580.35	88.12
580.561	87.12
580.772	84.12
580.982	85.12
581.193	76.12
581.403	82.12
581.614	80.12
581.825	86.12
582.035	74.12
582.246	88.12
582.456	76.12
582.667	87.12
582.877	72.12
583.087	92.12
583.298	83.12
583.508	73.12
583.719	77.12
583.929	80.12
584.139	84.12
584.35	71.12
584.56	91.12
584.77	97.12
584.981	90.12
585.191	80.12
585.401	68.12
585.611	88.12
585.821	71.12
586.032	97.12
586.242	68.12
586.452	90.12
586.662	82.12
586.872	83.12
587.082	85.12
587.292	81.12
587.502	77.12
587.713	82.12
587.923	83.12
588.133	74.12
588.343	80.12
588.553	81.12
588.762	79.12
588.972	84.12
589.182	90.12
589.392	87.12
589.602	86.12
589.812	68.12
590.022	85.12
590.232	85.12
590.441	83.12
590.651	71.12
590.861	81.12
591.071	71.12
591.281	82.12
591.49	76.12
591.7	76.12
591.91	79.12
592.119	84.12
592.329	80.12
592.539	85.12
592.748	95.12
592.958	77.12
593.167	73.12
593.377	75.12
593.587	78.12
593.796	88.12
594.006	82.12
594.215	80.12
594.424	100.12
594.634	91.12
594.843	84.12
595.053	82.12
595.262	82.12
595.472	88.12
595.681	86.12
595.89	83.12
596.1	58.12
596.309	96.12
596.518	83.12
596.727	88.12
596.937	86.12
597.146	76.12
597.355	76.12
597.564	79.12
597.774	97.12
597.983	67.12
598.192	69.12
598.401	68.12
598.61	90.12
598.819	68.12
599.028	86.12
599.237	88.12
599.446	93.12
599.655	85.12
599.864	85.12
600.073	87.12
600.282	91.12
600.491	79.12
600.7	67.12
600.909	74.12
601.118	80.12
601.327	89.12
601.536	89.12
601.745	93.12
601.953	82.12
602.162	96.12
602.371	79.12
602.58	84.12
602.789	84.12
602.997	109.12
603.206	94.12
603.415	87.12
603.623	91.12
603.832	85.12
604.041	94.12
604.249	94.12
604.458	95.12
604.666	95.12
604.875	84.12
605.084	99.12
605.292	83.12
605.501	96.12
605.709	88.12
605.918	83.12
606.126	92.12
606.334	89.12
606.543	89.12
606.751	89.12
606.96	87.12
607.168	93.12
607.376	77.12
607.585	99.12
607.793	92.12
608.001	86.12
608.21	94.12
608.418	89.12
608.626	93.12
608.834	101.12
609.043	95.12
609.251	91.12
609.459	84.12
609.667	104.12
609.875	86.12
610.083	92.12
610.291	96.12
610.499	85.12
610.707	84.12
610.916	81.12
611.124	87.12
611.332	89.12
611.54	87.12
611.748	105.12
611.955	102.12
612.163	84.12
612.371	95.12
612.579	86.12
612.787	86.12
612.995	93.12
613.203	90.12
613.411	87.12
613.618	104.12
613.826	85.12
614.034	86.12
614.242	90.12
614.449	81.12
614.657	86.12
614.865	82.12
615.072	75.12
615.28	73.12
615.488	91.12
615.695	104.12
615.903	98.12
616.111	88.12
616.318	86.12
616.526	90.12
616.733	92.12
616.941	76.12
617.148	98.12
617.356	102.12
617.563	87.12
617.771	91.12
617.978	92.12
618.185	93.12
618.393	94.12
618.6	76.12
618.807	76.12
619.015	79.12
619.222	77.12
619.429	78.12
619.637	97.12
619.844	81.12
620.051	73.12
620.258	88.12
620.466	83.12
620.673	88.12
620.88	92.12
621.087	72.12
621.294	92.12
621.501	84.12
621.708	93.12
621.915	111.12
622.122	100.12
622.329	85.12
622.536	85.12
622.743	84.12
622.95	89.12
623.157	104.12
623.364	91.12
623.571	79.12
623.778	98.12
623.985	85.12
624.192	89.12
624.399	96.12
624.606	85.12
624.812	83.12
625.019	93.12
625.226	88.12
625.433	90.12
625.639	104.12
625.846	76.12
626.053	84.12
626.259	89.12
626.466	98.12
626.673	77.12
626.879	79.12
627.086	86.12
627.293	83.12
627.499	84.12
627.706	81.12
627.912	84.12
628.119	84.12
628.325	96.12
628.532	80.12
628.738	90.12
628.945	90.12
629.151	80.12
629.357	86.12
629.564	78.12
629.77	75.12
629.976	82.12
630.183	82.12
630.389	63.12
630.595	84.12
630.802	71.12
631.008	80.12
631.214	85.12
631.42	88.12
631.627	90.12
631.833	77.12
632.039	84.12
632.245	89.12
632.451	88.12
632.657	89.12
632.863	88.12
633.069	67.12
633.275	97.12
633.481	72.12
633.688	83.12
633.893	85.12
634.099	78.12
634.305	87.12
634.511	84.12
634.717	98.12
634.923	81.12
635.129	73.12
635.335	89.12
635.541	92.12
635.747	82.12
635.952	86.12
636.158	93.12
636.364	101.12
636.57	73.12
636.775	92.12
636.981	94.12
637.187	73.12
637.392	96.12
637.598	77.12
637.804	68.12
638.009	93.12
638.215	102.12
638.421	91.12
638.626	84.12
638.832	80.12
639.037	92.12
639.243	79.12
639.448	90.12
639.654	97.12
639.859	77.12
640.065	85.12
640.27	90.12
640.475	86.12
640.681	100.12
640.886	90.12
641.091	73.12
641.297	89.12
641.502	94.12
641.707	85.12
641.913	82.12
642.118	85.12
642.323	92.12
642.528	77.12
642.733	97.12
642.939	78.12
643.144	96.12
643.349	97.12
643.554	82.12
643.759	89.12
643.964	87.12
644.169	86.12
644.374	79.12
644.579	99.12
644.784	87.12
644.989	100.12
645.194	83.12
645.399	77.12
645.604	78.12
645.809	93.12
646.014	84.12
646.219	86.12
646.423	87.12
646.628	93.12
646.833	77.12
647.038	77.12
647.243	86.12
647.447	80.12
647.652	75.12
647.857	88.12
648.062	98.12
648.266	93.12
648.471	90.12
648.676	75.12
648.88	94.12
649.085	87.12
649.289	67.12
649.494	81.12
649.698	77.12
649.903	78.12
650.107	81.12
650.312	94.12
650.516	74.12
650.721	86.12
650.925	81.12
651.13	73.12
651.334	88.12
651.539	83.12
651.743	87.12
651.947	67.12
652.152	80.12
652.356	80.12
652.56	73.12
652.764	89.12
652.969	92.12
653.173	81.12
653.377	97.12
653.581	88.12
653.785	95.12
653.99	71.12
654.194	87.12
654.398	91.12
654.602	86.12
654.806	99.12
655.01	88.12
655.214	95.12
655.418	90.12
655.622	83.12
655.826	93.12
656.03	71.12
656.234	71.12
656.438	71.12
656.642	79.12
656.846	84.12
657.049	91.12
657.253	75.12
657.457	93.12
657.661	68.12
657.865	81.12
658.068	91.12
658.272	83.12
658.476	92.12
658.68	80.12
658.883	67.12
659.087	78.12
659.291	88.12
659.494	77.12
659.698	82.12
659.901	69.12
660.105	69.12
660.309	68.12
660.512	74.12
660.716	77.12
660.919	87.12
661.123	74.12
661.326	74.12
661.53	83.12
661.733	67.12
661.936	81.12
662.14	75.12
662.343	95.12
662.546	72.12
662.75	79.12
662.953	71.12
663.156	79.12
663.36	83.12
663.563	74.12
663.766	79.12
663.969	77.12
664.173	89.12
664.376	83.12
664.579	89.12
664.782	81.12
664.985	97.12
665.188	90.12
665.391	80.12
665.594	61.12
665.797	66.12
666	69.12
666.203	70.12
666.406	90.12
666.609	79.12
666.812	90.12
667.015	87.12
667.218	76.12
667.421	71.12
667.624	69.12
667.827	83.12
668.03	75.12
668.232	68.12
668.435	81.12
668.638	71.12
668.841	77.12
669.043	89.12
669.246	78.12
669.449	85.12
669.651	94.12
669.854	81.12
670.057	80.12
670.259	92.12
670.462	69.12
670.665	80.12
670.867	80.12
671.07	85.12
671.272	95.12
671.475	88.12
671.677	71.12
671.88	79.12
672.082	72.12
672.284	83.12
672.487	99.12
672.689	77.12
672.892	62.12
