Data from Location4.07152019.Energy5.Lamp.07192019.3%Agarose_HRD10591_16-21-03-926.txt Node
Date: Fri Jul 19 16:21:03 EDT 2019
User: cochatt
Spectrometer: HR+D1059
Trigger mode: 1
Integration Time (sec): 1.000000E-1
Scans to average: 1
Electric dark correction enabled: true
Nonlinearity correction enabled: false
Boxcar width: 0
XAxis mode: Wavelengths
Number of Pixels in Spectrum: 2048
>>>>>Begin Spectral Data<<<<<
223.165	-7.56
223.4	-7.56
223.635	-7.56
223.869	-23.56
224.104	-27.56
224.338	-23.56
224.573	-21.56
224.808	-23.56
225.042	-9.56
225.277	-5.56
225.511	-1.56
225.746	7.44
225.98	25.44
226.215	11.44
226.449	12.44
226.683	32.44
226.918	20.44
227.152	34.44
227.387	32.44
227.621	52.44
227.856	31.44
228.09	51.44
228.324	59.44
228.559	65.44
228.793	56.44
229.027	65.44
229.262	73.44
229.496	67.44
229.73	69.44
229.964	68.44
230.199	76.44
230.433	75.44
230.667	76.44
230.901	79.44
231.136	81.44
231.37	75.44
231.604	72.44
231.838	68.44
232.072	66.44
232.306	95.44
232.541	90.44
232.775	89.44
233.009	88.44
233.243	74.44
233.477	86.44
233.711	79.44
233.945	89.44
234.179	78.44
234.413	79.44
234.647	87.44
234.881	83.44
235.115	85.44
235.349	74.44
235.583	82.44
235.817	75.44
236.051	96.44
236.285	74.44
236.519	89.44
236.753	64.44
236.987	91.44
237.221	79.44
237.455	84.44
237.689	73.44
237.922	71.44
238.156	69.44
238.39	67.44
238.624	74.44
238.858	72.44
239.091	72.44
239.325	76.44
239.559	99.44
239.793	79.44
240.027	75.44
240.26	70.44
240.494	82.44
240.728	80.44
240.961	66.44
241.195	76.44
241.429	71.44
241.662	94.44
241.896	80.44
242.13	81.44
242.363	80.44
242.597	83.44
242.83	69.44
243.064	80.44
243.298	83.44
243.531	74.44
243.765	82.44
243.998	81.44
244.232	67.44
244.465	81.44
244.699	80.44
244.932	63.44
245.166	75.44
245.399	73.44
245.633	85.44
245.866	87.44
246.099	82.44
246.333	85.44
246.566	93.44
246.8	85.44
247.033	77.44
247.266	91.44
247.5	76.44
247.733	87.44
247.966	82.44
248.2	76.44
248.433	79.44
248.666	75.44
248.899	68.44
249.133	70.44
249.366	85.44
249.599	71.44
249.832	74.44
250.066	90.44
250.299	61.44
250.532	82.44
250.765	83.44
250.998	74.44
251.231	83.44
251.465	83.44
251.698	83.44
251.931	74.44
252.164	92.44
252.397	79.44
252.63	87.44
252.863	81.44
253.096	73.44
253.329	86.44
253.562	89.44
253.795	81.44
254.028	74.44
254.261	76.44
254.494	85.44
254.727	71.44
254.96	76.44
255.193	76.44
255.426	86.44
255.659	90.44
255.892	92.44
256.124	79.44
256.357	83.44
256.59	87.44
256.823	85.44
257.056	76.44
257.289	87.44
257.521	85.44
257.754	85.44
257.987	79.44
258.22	95.44
258.452	82.44
258.685	89.44
258.918	84.44
259.151	91.44
259.383	78.44
259.616	85.44
259.849	87.44
260.081	75.44
260.314	72.44
260.547	92.44
260.779	69.44
261.012	84.44
261.244	92.44
261.477	74.44
261.71	77.44
261.942	75.44
262.175	74.44
262.407	72.44
262.64	87.44
262.872	86.44
263.105	87.44
263.337	83.44
263.57	78.44
263.802	84.44
264.035	79.44
264.267	81.44
264.499	86.44
264.732	82.44
264.964	76.44
265.197	89.44
265.429	89.44
265.661	77.44
265.894	95.44
266.126	74.44
266.358	75.44
266.591	79.44
266.823	75.44
267.055	81.44
267.287	84.44
267.52	81.44
267.752	97.44
267.984	71.44
268.216	80.44
268.448	101.44
268.681	91.44
268.913	78.44
269.145	78.44
269.377	87.44
269.609	96.44
269.841	90.44
270.073	90.44
270.306	78.44
270.538	69.44
270.77	77.44
271.002	99.44
271.234	94.44
271.466	85.44
271.698	82.44
271.93	83.44
272.162	90.44
272.394	83.44
272.626	80.44
272.858	76.44
273.09	94.44
273.322	86.44
273.553	77.44
273.785	75.44
274.017	83.44
274.249	84.44
274.481	90.44
274.713	87.44
274.945	96.44
275.176	71.44
275.408	91.44
275.64	82.44
275.872	81.44
276.104	86.44
276.335	79.44
276.567	85.44
276.799	79.44
277.031	83.44
277.262	72.44
277.494	84.44
277.726	80.44
277.957	88.44
278.189	89.44
278.421	95.44
278.652	90.44
278.884	75.44
279.115	81.44
279.347	95.44
279.579	81.44
279.81	80.44
280.042	91.44
280.273	74.44
280.505	87.44
280.736	82.44
280.968	81.44
281.199	88.44
281.431	83.44
281.662	78.44
281.894	84.44
282.125	76.44
282.356	93.44
282.588	87.44
282.819	76.44
283.051	77.44
283.282	88.44
283.513	93.44
283.745	88.44
283.976	88.44
284.207	86.44
284.439	91.44
284.67	85.44
284.901	96.44
285.132	88.44
285.364	94.44
285.595	83.44
285.826	85.44
286.057	75.44
286.288	88.44
286.52	74.44
286.751	78.44
286.982	80.44
287.213	81.44
287.444	71.44
287.675	76.44
287.906	86.44
288.138	89.44
288.369	75.44
288.6	89.44
288.831	78.44
289.062	70.44
289.293	75.44
289.524	66.44
289.755	85.44
289.986	84.44
290.217	92.44
290.448	96.44
290.679	99.44
290.91	86.44
291.141	91.44
291.371	84.44
291.602	79.44
291.833	75.44
292.064	91.44
292.295	99.44
292.526	92.44
292.757	73.44
292.987	79.44
293.218	75.44
293.449	75.44
293.68	90.44
293.91	82.44
294.141	80.44
294.372	80.44
294.603	80.44
294.833	80.44
295.064	94.44
295.295	94.44
295.525	87.44
295.756	96.44
295.987	81.44
296.217	85.44
296.448	93.44
296.679	78.44
296.909	73.44
297.14	70.44
297.37	83.44
297.601	83.44
297.831	75.44
298.062	88.44
298.292	74.44
298.523	85.44
298.753	82.44
298.984	75.44
299.214	88.44
299.445	93.44
299.675	79.44
299.905	84.44
300.136	98.44
300.366	90.44
300.597	81.44
300.827	76.44
301.057	93.44
301.288	84.44
301.518	86.44
301.748	96.44
301.979	87.44
302.209	77.44
302.439	80.44
302.669	86.44
302.9	93.44
303.13	83.44
303.36	89.44
303.59	86.44
303.82	85.44
304.051	95.44
304.281	83.44
304.511	82.44
304.741	76.44
304.971	73.44
305.201	95.44
305.431	82.44
305.661	71.44
305.891	88.44
306.121	87.44
306.352	91.44
306.582	79.44
306.812	73.44
307.042	101.44
307.272	81.44
307.502	83.44
307.731	92.44
307.961	89.44
308.191	97.44
308.421	95.44
308.651	88.44
308.881	80.44
309.111	86.44
309.341	80.44
309.571	79.44
309.8	92.44
310.03	89.44
310.26	86.44
310.49	71.44
310.72	75.44
310.949	84.44
311.179	86.44
311.409	79.44
311.639	98.44
311.868	91.44
312.098	86.44
312.328	98.44
312.557	70.44
312.787	90.44
313.017	83.44
313.246	75.44
313.476	80.44
313.706	81.44
313.935	76.44
314.165	82.44
314.394	71.44
314.624	86.44
314.853	93.44
315.083	87.44
315.312	86.44
315.542	91.44
315.771	93.44
316.001	88.44
316.23	87.44
316.46	77.44
316.689	75.44
316.919	96.44
317.148	90.44
317.377	95.44
317.607	80.44
317.836	104.44
318.065	88.44
318.295	85.44
318.524	71.44
318.753	85.44
318.983	98.44
319.212	81.44
319.441	77.44
319.67	87.44
319.9	90.44
320.129	82.44
320.358	92.44
320.587	85.44
320.816	89.44
321.046	84.44
321.275	88.44
321.504	92.44
321.733	87.44
321.962	93.44
322.191	63.44
322.42	90.44
322.649	93.44
322.878	89.44
323.108	88.44
323.337	81.44
323.566	72.44
323.795	70.44
324.024	82.44
324.253	87.44
324.482	96.44
324.71	84.44
324.939	73.44
325.168	81.44
325.397	78.44
325.626	96.44
325.855	89.44
326.084	83.44
326.313	95.44
326.542	89.44
326.77	85.44
326.999	80.44
327.228	85.44
327.457	82.44
327.686	104.44
327.914	72.44
328.143	94.44
328.372	97.44
328.6	82.44
328.829	95.44
329.058	89.44
329.287	89.44
329.515	72.44
329.744	90.44
329.972	91.44
330.201	84.44
330.43	66.44
330.658	86.44
330.887	86.44
331.115	80.44
331.344	69.44
331.572	85.44
331.801	103.44
332.03	74.44
332.258	94.44
332.486	74.44
332.715	89.44
332.943	85.44
333.172	68.44
333.4	81.44
333.629	80.44
333.857	92.44
334.085	86.44
334.314	89.44
334.542	85.44
334.771	86.44
334.999	96.44
335.227	83.44
335.455	76.44
335.684	78.44
335.912	74.44
336.14	83.44
336.369	80.44
336.597	80.44
336.825	84.44
337.053	77.44
337.281	82.44
337.51	84.44
337.738	85.44
337.966	84.44
338.194	88.44
338.422	91.44
338.65	83.44
338.878	78.44
339.106	86.44
339.334	93.44
339.562	83.44
339.79	87.44
340.018	87.44
340.246	75.44
340.474	84.44
340.702	92.44
340.93	87.44
341.158	79.44
341.386	84.44
341.614	79.44
341.842	78.44
342.07	83.44
342.298	90.44
342.526	80.44
342.754	87.44
342.981	89.44
343.209	85.44
343.437	92.44
343.665	78.44
343.893	77.44
344.12	89.44
344.348	91.44
344.576	83.44
344.804	81.44
345.031	79.44
345.259	79.44
345.487	85.44
345.714	72.44
345.942	76.44
346.17	77.44
346.397	83.44
346.625	91.44
346.853	89.44
347.08	82.44
347.308	84.44
347.535	85.44
347.763	90.44
347.99	86.44
348.218	92.44
348.445	85.44
348.673	91.44
348.9	81.44
349.128	87.44
349.355	84.44
349.583	82.44
349.81	92.44
350.037	92.44
350.265	92.44
350.492	85.44
350.72	81.44
350.947	82.44
351.174	75.44
351.402	81.44
351.629	66.44
351.856	81.44
352.083	81.44
352.311	84.44
352.538	100.44
352.765	88.44
352.992	84.44
353.22	92.44
353.447	80.44
353.674	103.44
353.901	75.44
354.128	90.44
354.355	85.44
354.583	86.44
354.81	78.44
355.037	86.44
355.264	83.44
355.491	92.44
355.718	81.44
355.945	87.44
356.172	73.44
356.399	86.44
356.626	93.44
356.853	86.44
357.08	77.44
357.307	81.44
357.534	78.44
357.761	80.44
357.988	78.44
358.215	81.44
358.441	74.44
358.668	83.44
358.895	89.44
359.122	92.44
359.349	80.44
359.576	73.44
359.802	89.44
360.029	76.44
360.256	88.44
360.483	84.44
360.709	83.44
360.936	91.44
361.163	81.44
361.39	81.44
361.616	87.44
361.843	85.44
362.07	85.44
362.296	82.44
362.523	90.44
362.749	87.44
362.976	89.44
363.203	99.44
363.429	97.44
363.656	73.44
363.882	75.44
364.109	80.44
364.335	83.44
364.562	69.44
364.788	80.44
365.015	101.44
365.241	75.44
365.468	91.44
365.694	81.44
365.92	94.44
366.147	83.44
366.373	77.44
366.599	77.44
366.826	93.44
367.052	81.44
367.278	97.44
367.505	83.44
367.731	81.44
367.957	81.44
368.184	75.44
368.41	77.44
368.636	103.44
368.862	88.44
369.089	87.44
369.315	88.44
369.541	86.44
369.767	80.44
369.993	89.44
370.219	88.44
370.445	74.44
370.672	81.44
370.898	91.44
371.124	87.44
371.35	88.44
371.576	104.44
371.802	93.44
372.028	87.44
372.254	95.44
372.48	93.44
372.706	93.44
372.932	86.44
373.158	91.44
373.384	98.44
373.61	94.44
373.835	86.44
374.061	84.44
374.287	78.44
374.513	91.44
374.739	96.44
374.965	105.44
375.191	82.44
375.416	89.44
375.642	77.44
375.868	95.44
376.094	88.44
376.319	96.44
376.545	102.44
376.771	93.44
376.997	90.44
377.222	88.44
377.448	101.44
377.674	83.44
377.899	96.44
378.125	103.44
378.35	106.44
378.576	98.44
378.802	104.44
379.027	100.44
379.253	102.44
379.478	91.44
379.704	100.44
379.929	92.44
380.155	102.44
380.38	99.44
380.606	83.44
380.831	84.44
381.057	98.44
381.282	96.44
381.507	87.44
381.733	89.44
381.958	92.44
382.184	112.44
382.409	109.44
382.634	98.44
382.86	83.44
383.085	88.44
383.31	103.44
383.535	85.44
383.761	101.44
383.986	97.44
384.211	101.44
384.436	105.44
384.662	93.44
384.887	95.44
385.112	99.44
385.337	101.44
385.562	92.44
385.787	108.44
386.013	100.44
386.238	95.44
386.463	92.44
386.688	103.44
386.913	98.44
387.138	95.44
387.363	97.44
387.588	102.44
387.813	91.44
388.038	100.44
388.263	94.44
388.488	88.44
388.713	92.44
388.938	113.44
389.163	97.44
389.387	96.44
389.612	112.44
389.837	104.44
390.062	99.44
390.287	102.44
390.512	87.44
390.736	82.44
390.961	79.44
391.186	87.44
391.411	101.44
391.636	94.44
391.86	100.44
392.085	99.44
392.31	89.44
392.534	114.44
392.759	114.44
392.984	109.44
393.208	103.44
393.433	101.44
393.658	113.44
393.882	113.44
394.107	110.44
394.331	118.44
394.556	102.44
394.78	93.44
395.005	108.44
395.229	102.44
395.454	102.44
395.678	114.44
395.903	96.44
396.127	95.44
396.352	100.44
396.576	98.44
396.801	103.44
397.025	113.44
397.249	112.44
397.474	109.44
397.698	104.44
397.922	105.44
398.147	92.44
398.371	92.44
398.595	104.44
398.82	115.44
399.044	108.44
399.268	93.44
399.492	108.44
399.717	91.44
399.941	115.44
400.165	105.44
400.389	121.44
400.613	111.44
400.837	115.44
401.062	113.44
401.286	99.44
401.51	99.44
401.734	106.44
401.958	105.44
402.182	104.44
402.406	127.44
402.63	115.44
402.854	125.44
403.078	121.44
403.302	101.44
403.526	108.44
403.75	119.44
403.974	119.44
404.198	121.44
404.422	121.44
404.645	118.44
404.869	122.44
405.093	114.44
405.317	118.44
405.541	122.44
405.765	117.44
405.988	105.44
406.212	103.44
406.436	107.44
406.66	119.44
406.883	129.44
407.107	105.44
407.331	116.44
407.555	115.44
407.778	111.44
408.002	117.44
408.226	118.44
408.449	116.44
408.673	115.44
408.896	118.44
409.12	108.44
409.344	129.44
409.567	121.44
409.791	116.44
410.014	100.44
410.238	113.44
410.461	121.44
410.685	120.44
410.908	131.44
411.132	129.44
411.355	100.44
411.578	122.44
411.802	119.44
412.025	109.44
412.249	124.44
412.472	122.44
412.695	124.44
412.919	106.44
413.142	116.44
413.365	116.44
413.589	116.44
413.812	112.44
414.035	114.44
414.258	117.44
414.482	128.44
414.705	126.44
414.928	127.44
415.151	127.44
415.374	127.44
415.597	131.44
415.821	103.44
416.044	137.44
416.267	125.44
416.49	124.44
416.713	123.44
416.936	123.44
417.159	122.44
417.382	124.44
417.605	122.44
417.828	133.44
418.051	114.44
418.274	130.44
418.497	130.44
418.72	148.44
418.943	127.44
419.166	126.44
419.389	132.44
419.611	119.44
419.834	133.44
420.057	120.44
420.28	136.44
420.503	135.44
420.726	137.44
420.948	118.44
421.171	125.44
421.394	133.44
421.617	127.44
421.839	132.44
422.062	148.44
422.285	121.44
422.507	132.44
422.73	126.44
422.953	143.44
423.175	117.44
423.398	119.44
423.621	117.44
423.843	143.44
424.066	147.44
424.288	137.44
424.511	127.44
424.733	128.44
424.956	142.44
425.178	131.44
425.401	146.44
425.623	143.44
425.846	127.44
426.068	130.44
426.291	132.44
426.513	123.44
426.735	118.44
426.958	122.44
427.18	117.44
427.402	134.44
427.625	141.44
427.847	130.44
428.069	124.44
428.292	122.44
428.514	129.44
428.736	122.44
428.958	127.44
429.181	122.44
429.403	127.44
429.625	128.44
429.847	127.44
430.069	129.44
430.292	115.44
430.514	127.44
430.736	124.44
430.958	147.44
431.18	122.44
431.402	135.44
431.624	111.44
431.846	111.44
432.068	90.44
432.29	92.44
432.512	115.44
432.734	129.44
432.956	118.44
433.178	147.44
433.4	138.44
433.622	140.44
433.844	128.44
434.066	123.44
434.287	118.44
434.509	95.44
434.731	101.44
434.953	108.44
435.175	98.44
435.397	116.44
435.618	117.44
435.84	118.44
436.062	106.44
436.284	115.44
436.505	107.44
436.727	123.44
436.949	133.44
437.17	111.44
437.392	119.44
437.614	123.44
437.835	109.44
438.057	109.44
438.278	119.44
438.5	120.44
438.721	127.44
438.943	133.44
439.165	135.44
439.386	147.44
439.608	140.44
439.829	149.44
440.05	131.44
440.272	147.44
440.493	131.44
440.715	141.44
440.936	147.44
441.158	149.44
441.379	144.44
441.6	152.44
441.822	141.44
442.043	135.44
442.264	124.44
442.486	126.44
442.707	129.44
442.928	140.44
443.149	139.44
443.371	142.44
443.592	138.44
443.813	138.44
444.034	130.44
444.255	131.44
444.476	128.44
444.698	141.44
444.919	145.44
445.14	264.44
445.361	210.44
445.582	152.44
445.803	144.44
446.024	145.44
446.245	152.44
446.466	164.44
446.687	146.44
446.908	148.44
447.129	146.44
447.35	139.44
447.571	167.44
447.792	145.44
448.013	145.44
448.234	139.44
448.455	152.44
448.675	136.44
448.896	124.44
449.117	127.44
449.338	141.44
449.559	136.44
449.779	132.44
450	135.44
450.221	135.44
450.442	114.44
450.662	125.44
450.883	134.44
451.104	131.44
451.324	123.44
451.545	135.44
451.766	128.44
451.986	135.44
452.207	121.44
452.428	132.44
452.648	116.44
452.869	121.44
453.089	115.44
453.31	103.44
453.53	113.44
453.751	115.44
453.971	106.44
454.192	111.44
454.412	109.44
454.633	120.44
454.853	103.44
455.073	117.44
455.294	127.44
455.514	129.44
455.734	122.44
455.955	133.44
456.175	104.44
456.395	117.44
456.616	111.44
456.836	104.44
457.056	123.44
457.276	116.44
457.497	108.44
457.717	119.44
457.937	121.44
458.157	97.44
458.377	101.44
458.598	86.44
458.818	97.44
459.038	91.44
459.258	81.44
459.478	82.44
459.698	86.44
459.918	92.44
460.138	115.44
460.358	123.44
460.578	119.44
460.798	116.44
461.018	117.44
461.238	121.44
461.458	124.44
461.678	113.44
461.898	118.44
462.118	108.44
462.338	115.44
462.558	108.44
462.777	119.44
462.997	131.44
463.217	116.44
463.437	109.44
463.657	103.44
463.876	114.44
464.096	100.44
464.316	114.44
464.536	99.44
464.755	109.44
464.975	121.44
465.195	125.44
465.414	120.44
465.634	121.44
465.854	115.44
466.073	118.44
466.293	113.44
466.512	116.44
466.732	135.44
466.951	132.44
467.171	140.44
467.391	132.44
467.61	124.44
467.829	127.44
468.049	123.44
468.268	125.44
468.488	132.44
468.707	128.44
468.927	124.44
469.146	118.44
469.365	138.44
469.585	128.44
469.804	129.44
470.023	127.44
470.243	131.44
470.462	143.44
470.681	163.44
470.901	140.44
471.12	138.44
471.339	139.44
471.558	137.44
471.777	140.44
471.997	121.44
472.216	121.44
472.435	120.44
472.654	113.44
472.873	117.44
473.092	103.44
473.311	131.44
473.53	124.44
473.749	119.44
473.968	134.44
474.187	126.44
474.406	108.44
474.625	120.44
474.844	151.44
475.063	128.44
475.282	118.44
475.501	114.44
475.72	117.44
475.939	112.44
476.158	122.44
476.377	140.44
476.596	133.44
476.814	112.44
477.033	102.44
477.252	108.44
477.471	112.44
477.69	124.44
477.908	139.44
478.127	127.44
478.346	123.44
478.564	128.44
478.783	129.44
479.002	129.44
479.22	128.44
479.439	134.44
479.658	123.44
479.876	117.44
480.095	110.44
480.313	125.44
480.532	117.44
480.751	104.44
480.969	95.44
481.188	87.44
481.406	81.44
481.624	100.44
481.843	92.44
482.061	97.44
482.28	113.44
482.498	102.44
482.717	104.44
482.935	115.44
483.153	146.44
483.372	144.44
483.59	140.44
483.808	129.44
484.027	139.44
484.245	135.44
484.463	157.44
484.681	166.44
484.9	145.44
485.118	143.44
485.336	122.44
485.554	112.44
485.772	97.44
485.99	107.44
486.209	116.44
486.427	104.44
486.645	119.44
486.863	144.44
487.081	137.44
487.299	139.44
487.517	142.44
487.735	168.44
487.953	193.44
488.171	198.44
488.389	154.44
488.607	147.44
488.825	153.44
489.043	136.44
489.261	137.44
489.479	123.44
489.696	147.44
489.914	137.44
490.132	131.44
490.35	156.44
490.568	154.44
490.786	156.44
491.003	169.44
491.221	173.44
491.439	163.44
491.657	193.44
491.874	192.44
492.092	219.44
492.31	234.44
492.527	218.44
492.745	201.44
492.963	191.44
493.18	176.44
493.398	165.44
493.615	179.44
493.833	148.44
494.05	161.44
494.268	159.44
494.485	161.44
494.703	173.44
494.92	159.44
495.138	174.44
495.355	183.44
495.573	175.44
495.79	162.44
496.008	185.44
496.225	160.44
496.442	157.44
496.66	173.44
496.877	176.44
497.094	152.44
497.312	155.44
497.529	163.44
497.746	157.44
497.963	137.44
498.181	132.44
498.398	123.44
498.615	119.44
498.832	126.44
499.049	115.44
499.267	130.44
499.484	121.44
499.701	131.44
499.918	137.44
500.135	129.44
500.352	135.44
500.569	147.44
500.786	147.44
501.003	135.44
501.22	133.44
501.437	135.44
501.654	144.44
501.871	133.44
502.088	123.44
502.305	120.44
502.522	119.44
502.739	127.44
502.956	128.44
503.172	129.44
503.389	124.44
503.606	129.44
503.823	115.44
504.04	115.44
504.256	121.44
504.473	122.44
504.69	133.44
504.907	129.44
505.123	122.44
505.34	120.44
505.557	128.44
505.773	120.44
505.99	113.44
506.207	117.44
506.423	104.44
506.64	107.44
506.856	120.44
507.073	120.44
507.289	130.44
507.506	116.44
507.722	103.44
507.939	121.44
508.155	115.44
508.372	119.44
508.588	106.44
508.805	97.44
509.021	117.44
509.238	109.44
509.454	100.44
509.67	119.44
509.887	92.44
510.103	89.44
510.319	91.44
510.536	86.44
510.752	85.44
510.968	87.44
511.184	88.44
511.401	70.44
511.617	92.44
511.833	89.44
512.049	78.44
512.265	97.44
512.481	101.44
512.698	89.44
512.914	91.44
513.13	105.44
513.346	98.44
513.562	91.44
513.778	93.44
513.994	94.44
514.21	100.44
514.426	93.44
514.642	97.44
514.858	82.44
515.074	74.44
515.29	93.44
515.506	80.44
515.721	73.44
515.937	87.44
516.153	90.44
516.369	85.44
516.585	77.44
516.801	95.44
517.016	93.44
517.232	104.44
517.448	82.44
517.664	80.44
517.879	98.44
518.095	98.44
518.311	89.44
518.527	89.44
518.742	96.44
518.958	115.44
519.173	100.44
519.389	107.44
519.605	99.44
519.82	105.44
520.036	115.44
520.251	106.44
520.467	108.44
520.682	109.44
520.898	80.44
521.113	92.44
521.329	91.44
521.544	114.44
521.76	95.44
521.975	102.44
522.19	100.44
522.406	103.44
522.621	92.44
522.836	100.44
523.052	107.44
523.267	121.44
523.482	108.44
523.698	108.44
523.913	133.44
524.128	117.44
524.343	111.44
524.559	119.44
524.774	139.44
524.989	116.44
525.204	119.44
525.419	129.44
525.634	107.44
525.849	106.44
526.064	118.44
526.28	101.44
526.495	95.44
526.71	84.44
526.925	85.44
527.14	87.44
527.355	72.44
527.57	94.44
527.785	108.44
527.999	86.44
528.214	97.44
528.429	120.44
528.644	111.44
528.859	118.44
529.074	140.44
529.289	162.44
529.503	171.44
529.718	144.44
529.933	130.44
530.148	93.44
530.363	96.44
530.577	94.44
530.792	82.44
531.007	76.44
531.221	86.44
531.436	74.44
531.651	82.44
531.865	93.44
532.08	85.44
532.295	83.44
532.509	84.44
532.724	79.44
532.938	96.44
533.153	112.44
533.367	124.44
533.582	123.44
533.796	112.44
534.011	109.44
534.225	109.44
534.44	95.44
534.654	88.44
534.868	103.44
535.083	92.44
535.297	97.44
535.511	108.44
535.726	111.44
535.94	108.44
536.154	98.44
536.369	89.44
536.583	91.44
536.797	86.44
537.011	80.44
537.225	95.44
537.44	87.44
537.654	96.44
537.868	78.44
538.082	94.44
538.296	106.44
538.51	98.44
538.724	118.44
538.938	121.44
539.153	123.44
539.367	121.44
539.581	110.44
539.795	108.44
540.009	108.44
540.222	96.44
540.436	107.44
540.65	108.44
540.864	120.44
541.078	139.44
541.292	138.44
541.506	146.44
541.72	154.44
541.934	170.44
542.147	197.44
542.361	199.44
542.575	151.44
542.789	137.44
543.002	128.44
543.216	134.44
543.43	120.44
543.644	125.44
543.857	145.44
544.071	166.44
544.285	152.44
544.498	159.44
544.712	161.44
544.925	162.44
545.139	157.44
545.352	149.44
545.566	158.44
545.779	160.44
545.993	157.44
546.206	163.44
546.42	151.44
546.633	162.44
546.847	170.44
547.06	160.44
547.274	164.44
547.487	160.44
547.7	165.44
547.914	179.44
548.127	146.44
548.34	164.44
548.554	164.44
548.767	144.44
548.98	157.44
549.193	152.44
549.407	152.44
549.62	150.44
549.833	141.44
550.046	149.44
550.259	159.44
550.473	154.44
550.686	143.44
550.899	149.44
551.112	138.44
551.325	148.44
551.538	125.44
551.751	120.44
551.964	120.44
552.177	131.44
552.39	131.44
552.603	145.44
552.816	151.44
553.029	154.44
553.242	156.44
553.455	146.44
553.667	164.44
553.88	143.44
554.093	159.44
554.306	143.44
554.519	133.44
554.732	149.44
554.944	153.44
555.157	130.44
555.37	122.44
555.583	125.44
555.795	142.44
556.008	136.44
556.221	137.44
556.433	136.44
556.646	140.44
556.859	134.44
557.071	128.44
557.284	135.44
557.496	146.44
557.709	133.44
557.921	129.44
558.134	148.44
558.346	128.44
558.559	123.44
558.771	140.44
558.984	132.44
559.196	131.44
559.409	135.44
559.621	130.44
559.833	118.44
560.046	137.44
560.258	133.44
560.47	122.44
560.683	118.44
560.895	136.44
561.107	145.44
561.32	135.44
561.532	129.44
561.744	135.44
561.956	120.44
562.168	130.44
562.381	113.44
562.593	122.44
562.805	128.44
563.017	131.44
563.229	112.44
563.441	128.44
563.653	117.44
563.865	127.44
564.077	123.44
564.289	127.44
564.501	121.44
564.713	107.44
564.925	122.44
565.137	111.44
565.349	105.44
565.561	124.44
565.773	130.44
565.985	111.44
566.197	105.44
566.408	107.44
566.62	119.44
566.832	114.44
567.044	137.44
567.255	121.44
567.467	121.44
567.679	96.44
567.891	119.44
568.102	111.44
568.314	100.44
568.526	86.44
568.737	102.44
568.949	96.44
569.161	100.44
569.372	86.44
569.584	85.44
569.795	76.44
570.007	80.44
570.218	80.44
570.43	82.44
570.641	86.44
570.853	93.44
571.064	98.44
571.276	97.44
571.487	91.44
571.698	117.44
571.91	107.44
572.121	109.44
572.333	102.44
572.544	109.44
572.755	84.44
572.966	103.44
573.178	97.44
573.389	84.44
573.6	93.44
573.811	93.44
574.023	90.44
574.234	101.44
574.445	78.44
574.656	83.44
574.867	102.44
575.078	96.44
575.289	108.44
575.501	85.44
575.712	99.44
575.923	89.44
576.134	96.44
576.345	87.44
576.556	97.44
576.767	93.44
576.978	109.44
577.188	88.44
577.399	89.44
577.61	96.44
577.821	83.44
578.032	101.44
578.243	104.44
578.454	101.44
578.665	79.44
578.875	84.44
579.086	75.44
579.297	95.44
579.508	83.44
579.718	97.44
579.929	84.44
580.14	82.44
580.35	96.44
580.561	90.44
580.772	99.44
580.982	106.44
581.193	110.44
581.403	77.44
581.614	89.44
581.825	105.44
582.035	86.44
582.246	108.44
582.456	103.44
582.667	103.44
582.877	82.44
583.087	91.44
583.298	83.44
583.508	84.44
583.719	79.44
583.929	92.44
584.139	85.44
584.35	81.44
584.56	90.44
584.77	83.44
584.981	84.44
585.191	80.44
585.401	82.44
585.611	86.44
585.821	89.44
586.032	63.44
586.242	85.44
586.452	84.44
586.662	90.44
586.872	79.44
587.082	84.44
587.292	74.44
587.502	89.44
587.713	92.44
587.923	79.44
588.133	80.44
588.343	92.44
588.553	91.44
588.762	81.44
588.972	79.44
589.182	75.44
589.392	86.44
589.602	76.44
589.812	92.44
590.022	74.44
590.232	74.44
590.441	96.44
590.651	76.44
590.861	75.44
591.071	78.44
591.281	87.44
591.49	78.44
591.7	74.44
591.91	79.44
592.119	83.44
592.329	96.44
592.539	86.44
592.748	93.44
592.958	86.44
593.167	80.44
593.377	89.44
593.587	97.44
593.796	80.44
594.006	81.44
594.215	84.44
594.424	84.44
594.634	98.44
594.843	102.44
595.053	80.44
595.262	86.44
595.472	95.44
595.681	90.44
595.89	80.44
596.1	91.44
596.309	83.44
596.518	104.44
596.727	99.44
596.937	95.44
597.146	86.44
597.355	79.44
597.564	102.44
597.774	67.44
597.983	81.44
598.192	100.44
598.401	81.44
598.61	77.44
598.819	86.44
599.028	97.44
599.237	77.44
599.446	79.44
599.655	83.44
599.864	75.44
600.073	90.44
600.282	88.44
600.491	98.44
600.7	85.44
600.909	102.44
601.118	109.44
601.327	105.44
601.536	95.44
601.745	105.44
601.953	97.44
602.162	100.44
602.371	116.44
602.58	105.44
602.789	107.44
602.997	109.44
603.206	105.44
603.415	122.44
603.623	111.44
603.832	94.44
604.041	95.44
604.249	98.44
604.458	101.44
604.666	111.44
604.875	99.44
605.084	87.44
605.292	109.44
605.501	104.44
605.709	114.44
605.918	93.44
606.126	117.44
606.334	113.44
606.543	98.44
606.751	107.44
606.96	108.44
607.168	109.44
607.376	102.44
607.585	95.44
607.793	116.44
608.001	104.44
608.21	106.44
608.418	96.44
608.626	114.44
608.834	115.44
609.043	105.44
609.251	123.44
609.459	111.44
609.667	126.44
609.875	121.44
610.083	120.44
610.291	111.44
610.499	115.44
610.707	104.44
610.916	115.44
611.124	111.44
611.332	111.44
611.54	121.44
611.748	105.44
611.955	119.44
612.163	112.44
612.371	118.44
612.579	119.44
612.787	119.44
612.995	107.44
613.203	116.44
613.411	114.44
613.618	101.44
613.826	112.44
614.034	119.44
614.242	109.44
614.449	105.44
614.657	102.44
614.865	112.44
615.072	119.44
615.28	114.44
615.488	121.44
615.695	102.44
615.903	95.44
616.111	118.44
616.318	113.44
616.526	108.44
616.733	122.44
616.941	97.44
617.148	119.44
617.356	113.44
617.563	115.44
617.771	99.44
617.978	97.44
618.185	109.44
618.393	118.44
618.6	105.44
618.807	104.44
619.015	117.44
619.222	107.44
619.429	81.44
619.637	104.44
619.844	93.44
620.051	95.44
620.258	109.44
620.466	111.44
620.673	117.44
620.88	100.44
621.087	102.44
621.294	104.44
621.501	102.44
621.708	106.44
621.915	101.44
622.122	100.44
622.329	112.44
622.536	119.44
622.743	120.44
622.95	106.44
623.157	104.44
623.364	116.44
623.571	102.44
623.778	95.44
623.985	113.44
624.192	103.44
624.399	104.44
624.606	100.44
624.812	106.44
625.019	107.44
625.226	102.44
625.433	100.44
625.639	98.44
625.846	88.44
626.053	94.44
626.259	95.44
626.466	96.44
626.673	92.44
626.879	90.44
627.086	93.44
627.293	100.44
627.499	105.44
627.706	121.44
627.912	112.44
628.119	112.44
628.325	95.44
628.532	102.44
628.738	104.44
628.945	104.44
629.151	105.44
629.357	92.44
629.564	95.44
629.77	96.44
629.976	98.44
630.183	99.44
630.389	90.44
630.595	111.44
630.802	131.44
631.008	112.44
631.214	114.44
631.42	113.44
631.627	101.44
631.833	106.44
632.039	107.44
632.245	97.44
632.451	107.44
632.657	103.44
632.863	104.44
633.069	104.44
633.275	118.44
633.481	100.44
633.688	97.44
633.893	98.44
634.099	95.44
634.305	101.44
634.511	90.44
634.717	100.44
634.923	99.44
635.129	96.44
635.335	89.44
635.541	87.44
635.747	97.44
635.952	91.44
636.158	92.44
636.364	100.44
636.57	90.44
636.775	115.44
636.981	113.44
637.187	104.44
637.392	77.44
637.598	109.44
637.804	123.44
638.009	114.44
638.215	98.44
638.421	77.44
638.626	101.44
638.832	112.44
639.037	120.44
639.243	80.44
639.448	95.44
639.654	104.44
639.859	95.44
640.065	89.44
640.27	89.44
640.475	101.44
640.681	82.44
640.886	99.44
641.091	98.44
641.297	98.44
641.502	92.44
641.707	100.44
641.913	97.44
642.118	102.44
642.323	90.44
642.528	92.44
642.733	97.44
642.939	103.44
643.144	103.44
643.349	104.44
643.554	104.44
643.759	101.44
643.964	90.44
644.169	108.44
644.374	94.44
644.579	101.44
644.784	96.44
644.989	100.44
645.194	92.44
645.399	101.44
645.604	94.44
645.809	91.44
646.014	97.44
646.219	111.44
646.423	107.44
646.628	85.44
646.833	118.44
647.038	96.44
647.243	94.44
647.447	106.44
647.652	116.44
647.857	116.44
648.062	91.44
648.266	99.44
648.471	106.44
648.676	105.44
648.88	108.44
649.085	90.44
649.289	103.44
649.494	95.44
649.698	111.44
649.903	105.44
650.107	91.44
650.312	100.44
650.516	86.44
650.721	88.44
650.925	82.44
651.13	99.44
651.334	99.44
651.539	109.44
651.743	84.44
651.947	87.44
652.152	98.44
652.356	107.44
652.56	92.44
652.764	95.44
652.969	87.44
653.173	96.44
653.377	91.44
653.581	100.44
653.785	94.44
653.99	104.44
654.194	81.44
654.398	96.44
654.602	94.44
654.806	98.44
655.01	87.44
655.214	95.44
655.418	87.44
655.622	96.44
655.826	89.44
656.03	75.44
656.234	99.44
656.438	92.44
656.642	92.44
656.846	97.44
657.049	79.44
657.253	92.44
657.457	95.44
657.661	88.44
657.865	83.44
658.068	102.44
658.272	103.44
658.476	87.44
658.68	86.44
658.883	93.44
659.087	89.44
659.291	88.44
659.494	78.44
659.698	76.44
659.901	87.44
660.105	85.44
660.309	76.44
660.512	97.44
660.716	79.44
660.919	95.44
661.123	74.44
661.326	76.44
661.53	88.44
661.733	86.44
661.936	76.44
662.14	105.44
662.343	97.44
662.546	90.44
662.75	77.44
662.953	68.44
663.156	86.44
663.36	81.44
663.563	80.44
663.766	76.44
663.969	89.44
664.173	85.44
664.376	87.44
664.579	82.44
664.782	76.44
664.985	85.44
665.188	96.44
665.391	81.44
665.594	72.44
665.797	77.44
666	94.44
666.203	85.44
666.406	85.44
666.609	76.44
666.812	69.44
667.015	73.44
667.218	84.44
667.421	84.44
667.624	75.44
667.827	79.44
668.03	76.44
668.232	76.44
668.435	76.44
668.638	80.44
668.841	84.44
669.043	73.44
669.246	88.44
669.449	87.44
669.651	84.44
669.854	82.44
670.057	67.44
670.259	85.44
670.462	70.44
670.665	84.44
670.867	79.44
671.07	80.44
671.272	79.44
671.475	90.44
671.677	70.44
671.88	77.44
672.082	78.44
672.284	79.44
672.487	79.44
672.689	80.44
672.892	67.44
