Data from 1980.PennyLincolnUp.Lamp.En5.5.200Scan.071819.P1_HRD10591_16-38-35-957.txt Node
Date: Thu Jul 18 16:38:35 EDT 2019
User: cochatt
Spectrometer: HR+D1059
Trigger mode: 1
Integration Time (sec): 1.000000E-1
Scans to average: 1
Electric dark correction enabled: true
Nonlinearity correction enabled: false
Boxcar width: 0
XAxis mode: Wavelengths
Number of Pixels in Spectrum: 2048
>>>>>Begin Spectral Data<<<<<
223.165	-6.38
223.4	-6.38
223.635	-6.38
223.869	-22.38
224.104	-8.38
224.338	-11.38
224.573	-28.38
224.808	-19.38
225.042	2.62
225.277	-4.38
225.511	-8.38
225.746	3.62
225.98	13.62
226.215	13.62
226.449	8.62
226.683	24.62
226.918	14.62
227.152	27.62
227.387	45.62
227.621	38.62
227.856	37.62
228.09	41.62
228.324	49.62
228.559	37.62
228.793	63.62
229.027	93.62
229.262	107.62
229.496	117.62
229.73	134.62
229.964	163.62
230.199	142.62
230.433	115.62
230.667	111.62
230.901	115.62
231.136	133.62
231.37	123.62
231.604	127.62
231.838	109.62
232.072	119.62
232.306	116.62
232.541	113.62
232.775	116.62
233.009	117.62
233.243	114.62
233.477	111.62
233.711	115.62
233.945	109.62
234.179	125.62
234.413	108.62
234.647	129.62
234.881	115.62
235.115	102.62
235.349	131.62
235.583	129.62
235.817	130.62
236.051	134.62
236.285	134.62
236.519	123.62
236.753	135.62
236.987	146.62
237.221	193.62
237.455	251.62
237.689	202.62
237.922	155.62
238.156	148.62
238.39	135.62
238.624	124.62
238.858	125.62
239.091	131.62
239.325	125.62
239.559	138.62
239.793	147.62
240.027	139.62
240.26	135.62
240.494	159.62
240.728	150.62
240.961	149.62
241.195	153.62
241.429	157.62
241.662	138.62
241.896	140.62
242.13	130.62
242.363	135.62
242.597	139.62
242.83	135.62
243.064	150.62
243.298	138.62
243.531	139.62
243.765	150.62
243.998	144.62
244.232	138.62
244.465	150.62
244.699	162.62
244.932	149.62
245.166	159.62
245.399	153.62
245.633	137.62
245.866	151.62
246.099	137.62
246.333	153.62
246.566	156.62
246.8	142.62
247.033	168.62
247.266	161.62
247.5	156.62
247.733	187.62
247.966	185.62
248.2	167.62
248.433	182.62
248.666	189.62
248.899	192.62
249.133	189.62
249.366	230.62
249.599	201.62
249.832	191.62
250.066	185.62
250.299	183.62
250.532	215.62
250.765	209.62
250.998	236.62
251.231	252.62
251.465	217.62
251.698	217.62
251.931	210.62
252.164	221.62
252.397	209.62
252.63	209.62
252.863	219.62
253.096	226.62
253.329	232.62
253.562	242.62
253.795	233.62
254.028	235.62
254.261	219.62
254.494	250.62
254.727	264.62
254.96	315.62
255.193	282.62
255.426	290.62
255.659	258.62
255.892	248.62
256.124	261.62
256.357	250.62
256.59	241.62
256.823	218.62
257.056	214.62
257.289	233.62
257.521	231.62
257.754	226.62
257.987	217.62
258.22	212.62
258.452	211.62
258.685	214.62
258.918	229.62
259.151	213.62
259.383	220.62
259.616	236.62
259.849	238.62
260.081	259.62
260.314	256.62
260.547	282.62
260.779	254.62
261.012	234.62
261.244	244.62
261.477	226.62
261.71	227.62
261.942	241.62
262.175	245.62
262.407	234.62
262.64	231.62
262.872	227.62
263.105	204.62
263.337	213.62
263.57	218.62
263.802	222.62
264.035	222.62
264.267	210.62
264.499	206.62
264.732	218.62
264.964	225.62
265.197	223.62
265.429	209.62
265.661	197.62
265.894	215.62
266.126	209.62
266.358	211.62
266.591	216.62
266.823	231.62
267.055	237.62
267.287	231.62
267.52	205.62
267.752	229.62
267.984	229.62
268.216	237.62
268.448	226.62
268.681	237.62
268.913	237.62
269.145	261.62
269.377	292.62
269.609	282.62
269.841	280.62
270.073	261.62
270.306	316.62
270.538	315.62
270.77	315.62
271.002	317.62
271.234	309.62
271.466	312.62
271.698	331.62
271.93	348.62
272.162	332.62
272.394	333.62
272.626	305.62
272.858	293.62
273.09	287.62
273.322	294.62
273.553	243.62
273.785	270.62
274.017	265.62
274.249	260.62
274.481	288.62
274.713	278.62
274.945	278.62
275.176	288.62
275.408	283.62
275.64	258.62
275.872	247.62
276.104	265.62
276.335	265.62
276.567	280.62
276.799	286.62
277.031	305.62
277.262	305.62
277.494	333.62
277.726	321.62
277.957	298.62
278.189	291.62
278.421	281.62
278.652	271.62
278.884	287.62
279.115	253.62
279.347	274.62
279.579	248.62
279.81	256.62
280.042	274.62
280.273	262.62
280.505	272.62
280.736	253.62
280.968	271.62
281.199	272.62
281.431	265.62
281.662	263.62
281.894	262.62
282.125	258.62
282.356	285.62
282.588	313.62
282.819	317.62
283.051	274.62
283.282	243.62
283.513	258.62
283.745	264.62
283.976	281.62
284.207	259.62
284.439	268.62
284.67	290.62
284.901	262.62
285.132	258.62
285.364	277.62
285.595	269.62
285.826	250.62
286.057	271.62
286.288	279.62
286.52	270.62
286.751	260.62
286.982	288.62
287.213	273.62
287.444	269.62
287.675	267.62
287.906	292.62
288.138	297.62
288.369	284.62
288.6	291.62
288.831	286.62
289.062	305.62
289.293	290.62
289.524	275.62
289.755	276.62
289.986	269.62
290.217	285.62
290.448	277.62
290.679	273.62
290.91	277.62
291.141	269.62
291.371	275.62
291.602	267.62
291.833	261.62
292.064	269.62
292.295	273.62
292.526	271.62
292.757	261.62
292.987	278.62
293.218	265.62
293.449	283.62
293.68	277.62
293.91	269.62
294.141	286.62
294.372	268.62
294.603	281.62
294.833	278.62
295.064	281.62
295.295	286.62
295.525	287.62
295.756	298.62
295.987	294.62
296.217	318.62
296.448	340.62
296.679	301.62
296.909	300.62
297.14	277.62
297.37	297.62
297.601	285.62
297.831	295.62
298.062	283.62
298.292	267.62
298.523	291.62
298.753	314.62
298.984	285.62
299.214	295.62
299.445	287.62
299.675	292.62
299.905	294.62
300.136	309.62
300.366	297.62
300.597	292.62
300.827	298.62
301.057	290.62
301.288	320.62
301.518	322.62
301.748	316.62
301.979	287.62
302.209	307.62
302.439	321.62
302.669	308.62
302.9	299.62
303.13	317.62
303.36	305.62
303.59	313.62
303.82	329.62
304.051	320.62
304.281	299.62
304.511	302.62
304.741	297.62
304.971	298.62
305.201	303.62
305.431	310.62
305.661	293.62
305.891	312.62
306.121	323.62
306.352	334.62
306.582	343.62
306.812	319.62
307.042	309.62
307.272	311.62
307.502	313.62
307.731	308.62
307.961	332.62
308.191	330.62
308.421	318.62
308.651	323.62
308.881	326.62
309.111	348.62
309.341	340.62
309.571	349.62
309.8	332.62
310.03	366.62
310.26	364.62
310.49	375.62
310.72	380.62
310.949	412.62
311.179	409.62
311.409	366.62
311.639	362.62
311.868	359.62
312.098	376.62
312.328	399.62
312.557	392.62
312.787	404.62
313.017	406.62
313.246	391.62
313.476	380.62
313.706	355.62
313.935	381.62
314.165	395.62
314.394	419.62
314.624	387.62
314.853	396.62
315.083	378.62
315.312	344.62
315.542	365.62
315.771	353.62
316.001	353.62
316.23	348.62
316.46	364.62
316.689	368.62
316.919	366.62
317.148	365.62
317.377	398.62
317.607	373.62
317.836	385.62
318.065	362.62
318.295	381.62
318.524	372.62
318.753	373.62
318.983	372.62
319.212	386.62
319.441	365.62
319.67	383.62
319.9	379.62
320.129	369.62
320.358	369.62
320.587	381.62
320.816	383.62
321.046	385.62
321.275	397.62
321.504	415.62
321.733	380.62
321.962	414.62
322.191	425.62
322.42	451.62
322.649	447.62
322.878	454.62
323.108	484.62
323.337	506.62
323.566	549.62
323.795	586.62
324.024	636.62
324.253	789.62
324.482	1120.62
324.71	1756.62
324.939	2526.62
325.168	2251.62
325.397	1171.62
325.626	767.62
325.855	605.62
326.084	575.62
326.313	558.62
326.542	563.62
326.77	608.62
326.999	742.62
327.228	1017.62
327.457	1535.62
327.686	1893.62
327.914	1320.62
328.143	825.62
328.372	729.62
328.6	680.62
328.829	613.62
329.058	622.62
329.287	674.62
329.515	595.62
329.744	553.62
329.972	551.62
330.201	557.62
330.43	613.62
330.658	635.62
330.887	663.62
331.115	665.62
331.344	565.62
331.572	518.62
331.801	534.62
332.03	506.62
332.258	473.62
332.486	468.62
332.715	437.62
332.943	443.62
333.172	462.62
333.4	453.62
333.629	457.62
333.857	481.62
334.085	484.62
334.314	512.62
334.542	551.62
334.771	565.62
334.999	501.62
335.227	477.62
335.455	448.62
335.684	435.62
335.912	425.62
336.14	415.62
336.369	427.62
336.597	437.62
336.825	430.62
337.053	435.62
337.281	415.62
337.51	409.62
337.738	425.62
337.966	430.62
338.194	442.62
338.422	434.62
338.65	434.62
338.878	416.62
339.106	403.62
339.334	414.62
339.562	403.62
339.79	414.62
340.018	417.62
340.246	400.62
340.474	431.62
340.702	418.62
340.93	415.62
341.158	404.62
341.386	421.62
341.614	422.62
341.842	413.62
342.07	411.62
342.298	419.62
342.526	399.62
342.754	383.62
342.981	398.62
343.209	390.62
343.437	385.62
343.665	397.62
343.893	405.62
344.12	398.62
344.348	421.62
344.576	398.62
344.804	435.62
345.031	417.62
345.259	405.62
345.487	436.62
345.714	428.62
345.942	417.62
346.17	401.62
346.397	397.62
346.625	400.62
346.853	408.62
347.08	406.62
347.308	407.62
347.535	418.62
347.763	420.62
347.99	416.62
348.218	423.62
348.445	437.62
348.673	419.62
348.9	424.62
349.128	401.62
349.355	400.62
349.583	403.62
349.81	379.62
350.037	390.62
350.265	396.62
350.492	387.62
350.72	412.62
350.947	420.62
351.174	415.62
351.402	421.62
351.629	403.62
351.856	404.62
352.083	435.62
352.311	435.62
352.538	429.62
352.765	426.62
352.992	423.62
353.22	395.62
353.447	410.62
353.674	398.62
353.901	378.62
354.128	381.62
354.355	343.62
354.583	379.62
354.81	389.62
355.037	367.62
355.264	369.62
355.491	364.62
355.718	360.62
355.945	357.62
356.172	369.62
356.399	362.62
356.626	370.62
356.853	369.62
357.08	359.62
357.307	385.62
357.534	356.62
357.761	347.62
357.988	369.62
358.215	365.62
358.441	367.62
358.668	373.62
358.895	377.62
359.122	366.62
359.349	381.62
359.576	405.62
359.802	440.62
360.029	481.62
360.256	484.62
360.483	468.62
360.709	421.62
360.936	424.62
361.163	388.62
361.39	395.62
361.616	426.62
361.843	407.62
362.07	385.62
362.296	400.62
362.523	386.62
362.749	414.62
362.976	411.62
363.203	392.62
363.429	382.62
363.656	398.62
363.882	402.62
364.109	382.62
364.335	391.62
364.562	383.62
364.788	382.62
365.015	375.62
365.241	400.62
365.468	378.62
365.694	379.62
365.92	377.62
366.147	391.62
366.373	373.62
366.599	381.62
366.826	378.62
367.052	374.62
367.278	377.62
367.505	382.62
367.731	376.62
367.957	374.62
368.184	378.62
368.41	398.62
368.636	392.62
368.862	381.62
369.089	391.62
369.315	390.62
369.541	391.62
369.767	370.62
369.993	381.62
370.219	380.62
370.445	364.62
370.672	381.62
370.898	372.62
371.124	362.62
371.35	367.62
371.576	367.62
371.802	357.62
372.028	367.62
372.254	377.62
372.48	361.62
372.706	379.62
372.932	370.62
373.158	359.62
373.384	362.62
373.61	375.62
373.835	381.62
374.061	363.62
374.287	385.62
374.513	358.62
374.739	385.62
374.965	377.62
375.191	369.62
375.416	371.62
375.642	375.62
375.868	387.62
376.094	378.62
376.319	351.62
376.545	354.62
376.771	355.62
376.997	357.62
377.222	364.62
377.448	375.62
377.674	347.62
377.899	365.62
378.125	362.62
378.35	375.62
378.576	381.62
378.802	368.62
379.027	378.62
379.253	357.62
379.478	338.62
379.704	384.62
379.929	369.62
380.155	365.62
380.38	381.62
380.606	370.62
380.831	360.62
381.057	385.62
381.282	352.62
381.507	372.62
381.733	365.62
381.958	374.62
382.184	375.62
382.409	379.62
382.634	365.62
382.86	375.62
383.085	357.62
383.31	366.62
383.535	371.62
383.761	375.62
383.986	381.62
384.211	368.62
384.436	399.62
384.662	379.62
384.887	375.62
385.112	374.62
385.337	379.62
385.562	389.62
385.787	385.62
386.013	409.62
386.238	403.62
386.463	405.62
386.688	390.62
386.913	363.62
387.138	369.62
387.363	389.62
387.588	384.62
387.813	382.62
388.038	379.62
388.263	382.62
388.488	383.62
388.713	382.62
388.938	374.62
389.163	392.62
389.387	412.62
389.612	382.62
389.837	401.62
390.062	362.62
390.287	381.62
390.512	373.62
390.736	399.62
390.961	371.62
391.186	392.62
391.411	380.62
391.636	404.62
391.86	364.62
392.085	395.62
392.31	393.62
392.534	402.62
392.759	381.62
392.984	383.62
393.208	382.62
393.433	390.62
393.658	400.62
393.882	381.62
394.107	386.62
394.331	395.62
394.556	377.62
394.78	384.62
395.005	391.62
395.229	391.62
395.454	391.62
395.678	409.62
395.903	430.62
396.127	409.62
396.352	431.62
396.576	406.62
396.801	397.62
397.025	400.62
397.249	411.62
397.474	409.62
397.698	418.62
397.922	436.62
398.147	446.62
398.371	452.62
398.595	434.62
398.82	447.62
399.044	449.62
399.268	432.62
399.492	460.62
399.717	465.62
399.941	489.62
400.165	546.62
400.389	560.62
400.613	510.62
400.837	467.62
401.062	470.62
401.286	444.62
401.51	434.62
401.734	452.62
401.958	444.62
402.182	445.62
402.406	461.62
402.63	457.62
402.854	461.62
403.078	440.62
403.302	457.62
403.526	465.62
403.75	469.62
403.974	459.62
404.198	446.62
404.422	476.62
404.645	457.62
404.869	484.62
405.093	511.62
405.317	545.62
405.541	572.62
405.765	532.62
405.988	493.62
406.212	513.62
406.436	543.62
406.66	528.62
406.883	495.62
407.107	519.62
407.331	569.62
407.555	611.62
407.778	635.62
408.002	576.62
408.226	521.62
408.449	523.62
408.673	527.62
408.896	526.62
409.12	581.62
409.344	551.62
409.567	490.62
409.791	466.62
410.014	462.62
410.238	460.62
410.461	460.62
410.685	481.62
410.908	462.62
411.132	506.62
411.355	554.62
411.578	536.62
411.802	484.62
412.025	475.62
412.249	456.62
412.472	500.62
412.695	533.62
412.919	531.62
413.142	469.62
413.365	477.62
413.589	450.62
413.812	441.62
414.035	458.62
414.258	431.62
414.482	413.62
414.705	438.62
414.928	435.62
415.151	427.62
415.374	441.62
415.597	446.62
415.821	438.62
416.044	446.62
416.267	435.62
416.49	434.62
416.713	438.62
416.936	422.62
417.159	439.62
417.382	452.62
417.605	454.62
417.828	467.62
418.051	477.62
418.274	475.62
418.497	440.62
418.72	440.62
418.943	461.62
419.166	456.62
419.389	476.62
419.611	469.62
419.834	442.62
420.057	481.62
420.28	483.62
420.503	473.62
420.726	465.62
420.948	478.62
421.171	526.62
421.394	563.62
421.617	503.62
421.839	467.62
422.062	479.62
422.285	469.62
422.507	566.62
422.73	622.62
422.953	590.62
423.175	528.62
423.398	494.62
423.621	490.62
423.843	536.62
424.066	536.62
424.288	536.62
424.511	530.62
424.733	598.62
424.956	664.62
425.178	671.62
425.401	644.62
425.623	664.62
425.846	591.62
426.068	523.62
426.291	543.62
426.513	531.62
426.735	523.62
426.958	589.62
427.18	646.62
427.402	812.62
427.625	877.62
427.847	763.62
428.069	701.62
428.292	591.62
428.514	557.62
428.736	526.62
428.958	488.62
429.181	488.62
429.403	487.62
429.625	500.62
429.847	550.62
430.069	604.62
430.292	611.62
430.514	520.62
430.736	469.62
430.958	473.62
431.18	460.62
431.402	457.62
431.624	438.62
431.846	437.62
432.068	441.62
432.29	447.62
432.512	449.62
432.734	460.62
432.956	450.62
433.178	460.62
433.4	453.62
433.622	468.62
433.844	449.62
434.066	459.62
434.287	425.62
434.509	433.62
434.731	444.62
434.953	463.62
435.175	476.62
435.397	517.62
435.618	513.62
435.84	562.62
436.062	689.62
436.284	731.62
436.505	603.62
436.727	542.62
436.949	519.62
437.17	502.62
437.392	493.62
437.614	513.62
437.835	558.62
438.057	651.62
438.278	750.62
438.5	754.62
438.721	809.62
438.943	767.62
439.165	620.62
439.386	561.62
439.608	558.62
439.829	547.62
440.05	605.62
440.272	633.62
440.493	586.62
440.715	531.62
440.936	504.62
441.158	497.62
441.379	506.62
441.6	505.62
441.822	515.62
442.043	589.62
442.264	681.62
442.486	689.62
442.707	601.62
442.928	569.62
443.149	552.62
443.371	574.62
443.592	602.62
443.813	692.62
444.034	787.62
444.255	627.62
444.476	558.62
444.698	526.62
444.919	528.62
445.14	592.62
445.361	542.62
445.582	572.62
445.803	648.62
446.024	769.62
446.245	775.62
446.466	682.62
446.687	588.62
446.908	546.62
447.129	518.62
447.35	488.62
447.571	475.62
447.792	486.62
448.013	498.62
448.234	521.62
448.455	587.62
448.675	699.62
448.896	790.62
449.117	687.62
449.338	619.62
449.559	727.62
449.779	840.62
450	647.62
450.221	570.62
450.442	518.62
450.662	473.62
450.883	499.62
451.104	511.62
451.324	509.62
451.545	507.62
451.766	475.62
451.986	435.62
452.207	452.62
452.428	451.62
452.648	429.62
452.869	434.62
453.089	442.62
453.31	450.62
453.53	455.62
453.751	443.62
453.971	447.62
454.192	452.62
454.412	446.62
454.633	453.62
454.853	439.62
455.073	441.62
455.294	468.62
455.514	548.62
455.734	545.62
455.955	462.62
456.175	437.62
456.395	416.62
456.616	403.62
456.836	408.62
457.056	406.62
457.276	402.62
457.497	394.62
457.717	426.62
457.937	420.62
458.157	420.62
458.377	425.62
458.598	455.62
458.818	533.62
459.038	597.62
459.258	620.62
459.478	515.62
459.698	463.62
459.918	455.62
460.138	458.62
460.358	442.62
460.578	450.62
460.798	423.62
461.018	442.62
461.238	433.62
461.458	440.62
461.678	449.62
461.898	429.62
462.118	443.62
462.338	446.62
462.558	450.62
462.777	443.62
462.997	440.62
463.217	466.62
463.437	454.62
463.657	440.62
463.876	445.62
464.096	429.62
464.316	433.62
464.536	457.62
464.755	469.62
464.975	485.62
465.195	526.62
465.414	641.62
465.634	560.62
465.854	510.62
466.073	513.62
466.293	450.62
466.512	457.62
466.732	454.62
466.951	444.62
467.171	430.62
467.391	446.62
467.61	433.62
467.829	452.62
468.049	464.62
468.268	436.62
468.488	430.62
468.707	456.62
468.927	431.62
469.146	420.62
469.365	407.62
469.585	399.62
469.804	431.62
470.023	451.62
470.243	457.62
470.462	472.62
470.681	473.62
470.901	471.62
471.12	460.62
471.339	456.62
471.558	447.62
471.777	449.62
471.997	453.62
472.216	466.62
472.435	494.62
472.654	485.62
472.873	452.62
473.092	459.62
473.311	442.62
473.53	435.62
473.749	477.62
473.968	509.62
474.187	614.62
474.406	635.62
474.625	518.62
474.844	483.62
475.063	468.62
475.282	463.62
475.501	459.62
475.72	438.62
475.939	436.62
476.158	469.62
476.377	469.62
476.596	447.62
476.814	486.62
477.033	474.62
477.252	461.62
477.471	463.62
477.69	469.62
477.908	491.62
478.127	490.62
478.346	493.62
478.564	487.62
478.783	461.62
479.002	511.62
479.22	515.62
479.439	511.62
479.658	544.62
479.876	546.62
480.095	529.62
480.313	576.62
480.532	569.62
480.751	553.62
480.969	546.62
481.188	633.62
481.406	673.62
481.624	602.62
481.843	573.62
482.061	564.62
482.28	572.62
482.498	543.62
482.717	546.62
482.935	533.62
483.153	543.62
483.372	527.62
483.59	536.62
483.808	524.62
484.027	533.62
484.245	531.62
484.463	529.62
484.681	538.62
484.9	534.62
485.118	534.62
485.336	550.62
485.554	532.62
485.772	548.62
485.99	567.62
486.209	558.62
486.427	574.62
486.645	581.62
486.863	597.62
487.081	570.62
487.299	586.62
487.517	591.62
487.735	567.62
487.953	570.62
488.171	582.62
488.389	588.62
488.607	568.62
488.825	577.62
489.043	588.62
489.261	573.62
489.479	591.62
489.696	587.62
489.914	621.62
490.132	589.62
490.35	584.62
490.568	620.62
490.786	631.62
491.003	625.62
491.221	628.62
491.439	638.62
491.657	662.62
491.874	631.62
492.092	652.62
492.31	661.62
492.527	676.62
492.745	692.62
492.963	715.62
493.18	679.62
493.398	665.62
493.615	703.62
493.833	695.62
494.05	692.62
494.268	707.62
494.485	675.62
494.703	692.62
494.92	696.62
495.138	693.62
495.355	724.62
495.573	714.62
495.79	689.62
496.008	695.62
496.225	682.62
496.442	686.62
496.66	691.62
496.877	695.62
497.094	694.62
497.312	702.62
497.529	698.62
497.746	700.62
497.963	696.62
498.181	754.62
498.398	731.62
498.615	728.62
498.832	753.62
499.049	735.62
499.267	746.62
499.484	759.62
499.701	785.62
499.918	791.62
500.135	801.62
500.352	823.62
500.569	830.62
500.786	835.62
501.003	841.62
501.22	835.62
501.437	815.62
501.654	806.62
501.871	830.62
502.088	769.62
502.305	762.62
502.522	783.62
502.739	753.62
502.956	714.62
503.172	720.62
503.389	724.62
503.606	711.62
503.823	714.62
504.04	700.62
504.256	684.62
504.473	669.62
504.69	696.62
504.907	669.62
505.123	673.62
505.34	662.62
505.557	655.62
505.773	669.62
505.99	698.62
506.207	652.62
506.423	652.62
506.64	684.62
506.856	661.62
507.073	641.62
507.289	665.62
507.506	663.62
507.722	659.62
507.939	703.62
508.155	682.62
508.372	673.62
508.588	651.62
508.805	658.62
509.021	637.62
509.238	645.62
509.454	661.62
509.67	653.62
509.887	636.62
510.103	644.62
510.319	672.62
510.536	785.62
510.752	1346.62
510.968	1105.62
511.184	701.62
511.401	666.62
511.617	625.62
511.833	609.62
512.049	589.62
512.265	604.62
512.481	614.62
512.698	610.62
512.914	627.62
513.13	614.62
513.346	617.62
513.562	613.62
513.778	633.62
513.994	637.62
514.21	657.62
514.426	662.62
514.642	717.62
514.858	767.62
515.074	807.62
515.29	997.62
515.506	1555.62
515.721	1228.62
515.937	795.62
516.153	706.62
516.369	689.62
516.585	668.62
516.801	651.62
517.016	624.62
517.232	626.62
517.448	605.62
517.664	629.62
517.879	616.62
518.095	613.62
518.311	585.62
518.527	606.62
518.742	606.62
518.958	609.62
519.173	601.62
519.389	602.62
519.605	602.62
519.82	643.62
520.036	645.62
520.251	667.62
520.467	706.62
520.682	654.62
520.898	709.62
521.113	771.62
521.329	821.62
521.544	935.62
521.76	1213.62
521.975	2092.62
522.19	2024.62
522.406	1093.62
522.621	799.62
522.836	685.62
523.052	641.62
523.267	621.62
523.482	603.62
523.698	579.62
523.913	575.62
524.128	594.62
524.343	561.62
524.559	554.62
524.774	568.62
524.989	536.62
525.204	523.62
525.419	543.62
525.634	532.62
525.849	510.62
526.064	523.62
526.28	518.62
526.495	498.62
526.71	497.62
526.925	489.62
527.14	492.62
527.355	471.62
527.57	505.62
527.785	491.62
527.999	478.62
528.214	476.62
528.429	486.62
528.644	485.62
528.859	480.62
529.074	497.62
529.289	537.62
529.503	641.62
529.718	629.62
529.933	549.62
530.148	509.62
530.363	519.62
530.577	478.62
530.792	478.62
531.007	473.62
531.221	479.62
531.436	461.62
531.651	482.62
531.865	457.62
532.08	452.62
532.295	461.62
532.509	463.62
532.724	481.62
532.938	451.62
533.153	462.62
533.367	471.62
533.582	477.62
533.796	449.62
534.011	465.62
534.225	457.62
534.44	439.62
534.654	445.62
534.868	453.62
535.083	451.62
535.297	463.62
535.511	450.62
535.726	459.62
535.94	461.62
536.154	479.62
536.369	446.62
536.583	431.62
536.797	434.62
537.011	452.62
537.225	437.62
537.44	444.62
537.654	448.62
537.868	446.62
538.082	431.62
538.296	433.62
538.51	457.62
538.724	457.62
538.938	445.62
539.153	446.62
539.367	455.62
539.581	459.62
539.795	444.62
540.009	453.62
540.222	434.62
540.436	435.62
540.65	430.62
540.864	440.62
541.078	445.62
541.292	459.62
541.506	445.62
541.72	429.62
541.934	436.62
542.147	446.62
542.361	416.62
542.575	433.62
542.789	428.62
543.002	423.62
543.216	452.62
543.43	447.62
543.644	450.62
543.857	453.62
544.071	440.62
544.285	469.62
544.498	441.62
544.712	421.62
544.925	429.62
545.139	433.62
545.352	420.62
545.566	442.62
545.779	455.62
545.993	427.62
546.206	435.62
546.42	450.62
546.633	436.62
546.847	410.62
547.06	405.62
547.274	413.62
547.487	407.62
547.7	408.62
547.914	415.62
548.127	412.62
548.34	410.62
548.554	396.62
548.767	404.62
548.98	414.62
549.193	414.62
549.407	412.62
549.62	405.62
549.833	418.62
550.046	405.62
550.259	410.62
550.473	402.62
550.686	402.62
550.899	395.62
551.112	408.62
551.325	391.62
551.538	397.62
551.751	402.62
551.964	385.62
552.177	376.62
552.39	377.62
552.603	401.62
552.816	418.62
553.029	412.62
553.242	405.62
553.455	407.62
553.667	421.62
553.88	440.62
554.093	431.62
554.306	441.62
554.519	405.62
554.732	389.62
554.944	416.62
555.157	402.62
555.37	385.62
555.583	386.62
555.795	401.62
556.008	397.62
556.221	374.62
556.433	382.62
556.646	383.62
556.859	387.62
557.071	375.62
557.284	373.62
557.496	378.62
557.709	374.62
557.921	372.62
558.134	373.62
558.346	370.62
558.559	373.62
558.771	354.62
558.984	360.62
559.196	371.62
559.409	361.62
559.621	374.62
559.833	369.62
560.046	378.62
560.258	381.62
560.47	381.62
560.683	369.62
560.895	356.62
561.107	377.62
561.32	360.62
561.532	354.62
561.744	369.62
561.956	361.62
562.168	372.62
562.381	349.62
562.593	366.62
562.805	382.62
563.017	359.62
563.229	355.62
563.441	346.62
563.653	355.62
563.865	381.62
564.077	359.62
564.289	377.62
564.501	373.62
564.713	377.62
564.925	370.62
565.137	398.62
565.349	379.62
565.561	385.62
565.773	383.62
565.985	382.62
566.197	397.62
566.408	369.62
566.62	414.62
566.832	413.62
567.044	412.62
567.255	387.62
567.467	410.62
567.679	410.62
567.891	427.62
568.102	419.62
568.314	437.62
568.526	398.62
568.737	394.62
568.949	386.62
569.161	378.62
569.372	360.62
569.584	372.62
569.795	364.62
570.007	375.62
570.218	427.62
570.43	419.62
570.641	363.62
570.853	356.62
571.064	344.62
571.276	371.62
571.487	348.62
571.698	356.62
571.91	357.62
572.121	325.62
572.333	344.62
572.544	345.62
572.755	323.62
572.966	343.62
573.178	345.62
573.389	324.62
573.6	323.62
573.811	317.62
574.023	325.62
574.234	327.62
574.445	308.62
574.656	318.62
574.867	297.62
575.078	314.62
575.289	322.62
575.501	314.62
575.712	303.62
575.923	317.62
576.134	327.62
576.345	314.62
576.556	333.62
576.767	319.62
576.978	309.62
577.188	303.62
577.399	314.62
577.61	311.62
577.821	297.62
578.032	305.62
578.243	343.62
578.454	654.62
578.665	456.62
578.875	322.62
579.086	317.62
579.297	296.62
579.508	307.62
579.718	294.62
579.929	297.62
580.14	307.62
580.35	299.62
580.561	294.62
580.772	288.62
580.982	287.62
581.193	291.62
581.403	307.62
581.614	279.62
581.825	275.62
582.035	299.62
582.246	282.62
582.456	309.62
582.667	288.62
582.877	291.62
583.087	267.62
583.298	281.62
583.508	298.62
583.719	286.62
583.929	282.62
584.139	278.62
584.35	266.62
584.56	287.62
584.77	290.62
584.981	282.62
585.191	292.62
585.401	305.62
585.611	277.62
585.821	300.62
586.032	295.62
586.242	301.62
586.452	274.62
586.662	278.62
586.872	284.62
587.082	288.62
587.292	279.62
587.502	274.62
587.713	271.62
587.923	264.62
588.133	287.62
588.343	271.62
588.553	272.62
588.762	284.62
588.972	275.62
589.182	285.62
589.392	281.62
589.602	283.62
589.812	284.62
590.022	268.62
590.232	283.62
590.441	270.62
590.651	264.62
590.861	271.62
591.071	266.62
591.281	274.62
591.49	290.62
591.7	294.62
591.91	277.62
592.119	293.62
592.329	271.62
592.539	296.62
592.748	270.62
592.958	282.62
593.167	258.62
593.377	271.62
593.587	285.62
593.796	288.62
594.006	269.62
594.215	287.62
594.424	285.62
594.634	273.62
594.843	297.62
595.053	278.62
595.262	278.62
595.472	269.62
595.681	280.62
595.89	283.62
596.1	270.62
596.309	259.62
596.518	270.62
596.727	245.62
596.937	275.62
597.146	284.62
597.355	261.62
597.564	278.62
597.774	265.62
597.983	261.62
598.192	250.62
598.401	245.62
598.61	251.62
598.819	252.62
599.028	249.62
599.237	245.62
599.446	263.62
599.655	254.62
599.864	241.62
600.073	248.62
600.282	253.62
600.491	256.62
600.7	247.62
600.909	235.62
601.118	255.62
601.327	260.62
601.536	243.62
601.745	246.62
601.953	250.62
602.162	245.62
602.371	245.62
602.58	242.62
602.789	240.62
602.997	244.62
603.206	239.62
603.415	222.62
603.623	220.62
603.832	227.62
604.041	243.62
604.249	230.62
604.458	238.62
604.666	231.62
604.875	223.62
605.084	226.62
605.292	198.62
605.501	236.62
605.709	228.62
605.918	227.62
606.126	251.62
606.334	221.62
606.543	241.62
606.751	233.62
606.96	230.62
607.168	227.62
607.376	213.62
607.585	237.62
607.793	245.62
608.001	229.62
608.21	224.62
608.418	214.62
608.626	226.62
608.834	243.62
609.043	235.62
609.251	224.62
609.459	225.62
609.667	226.62
609.875	222.62
610.083	235.62
610.291	245.62
610.499	206.62
610.707	244.62
610.916	233.62
611.124	231.62
611.332	234.62
611.54	230.62
611.748	233.62
611.955	224.62
612.163	235.62
612.371	233.62
612.579	221.62
612.787	221.62
612.995	232.62
613.203	241.62
613.411	229.62
613.618	232.62
613.826	241.62
614.034	234.62
614.242	246.62
614.449	223.62
614.657	230.62
614.865	218.62
615.072	220.62
615.28	225.62
615.488	222.62
615.695	239.62
615.903	228.62
616.111	231.62
616.318	225.62
616.526	228.62
616.733	217.62
616.941	217.62
617.148	225.62
617.356	211.62
617.563	215.62
617.771	218.62
617.978	219.62
618.185	205.62
618.393	216.62
618.6	226.62
618.807	198.62
619.015	221.62
619.222	215.62
619.429	225.62
619.637	227.62
619.844	207.62
620.051	217.62
620.258	212.62
620.466	219.62
620.673	229.62
620.88	215.62
621.087	210.62
621.294	220.62
621.501	202.62
621.708	222.62
621.915	217.62
622.122	225.62
622.329	212.62
622.536	210.62
622.743	206.62
622.95	191.62
623.157	206.62
623.364	210.62
623.571	206.62
623.778	209.62
623.985	213.62
624.192	198.62
624.399	215.62
624.606	208.62
624.812	198.62
625.019	204.62
625.226	220.62
625.433	218.62
625.639	197.62
625.846	193.62
626.053	177.62
626.259	190.62
626.466	192.62
626.673	197.62
626.879	189.62
627.086	218.62
627.293	195.62
627.499	209.62
627.706	204.62
627.912	205.62
628.119	192.62
628.325	195.62
628.532	195.62
628.738	200.62
628.945	188.62
629.151	193.62
629.357	204.62
629.564	187.62
629.77	183.62
629.976	190.62
630.183	178.62
630.389	172.62
630.595	190.62
630.802	190.62
631.008	190.62
631.214	192.62
631.42	196.62
631.627	189.62
631.833	171.62
632.039	177.62
632.245	189.62
632.451	183.62
632.657	183.62
632.863	188.62
633.069	185.62
633.275	177.62
633.481	188.62
633.688	185.62
633.893	194.62
634.099	178.62
634.305	174.62
634.511	164.62
634.717	178.62
634.923	177.62
635.129	191.62
635.335	171.62
635.541	169.62
635.747	174.62
635.952	163.62
636.158	186.62
636.364	172.62
636.57	193.62
636.775	173.62
636.981	181.62
637.187	188.62
637.392	182.62
637.598	179.62
637.804	179.62
638.009	161.62
638.215	166.62
638.421	155.62
638.626	160.62
638.832	162.62
639.037	165.62
639.243	174.62
639.448	193.62
639.654	172.62
639.859	172.62
640.065	175.62
640.27	181.62
640.475	179.62
640.681	166.62
640.886	168.62
641.091	177.62
641.297	181.62
641.502	153.62
641.707	166.62
641.913	171.62
642.118	166.62
642.323	165.62
642.528	158.62
642.733	161.62
642.939	163.62
643.144	165.62
643.349	175.62
643.554	167.62
643.759	161.62
643.964	172.62
644.169	169.62
644.374	156.62
644.579	166.62
644.784	162.62
644.989	175.62
645.194	161.62
645.399	177.62
645.604	159.62
645.809	172.62
646.014	156.62
646.219	157.62
646.423	163.62
646.628	165.62
646.833	155.62
647.038	147.62
647.243	169.62
647.447	140.62
647.652	163.62
647.857	162.62
648.062	171.62
648.266	147.62
648.471	151.62
648.676	163.62
648.88	172.62
649.085	175.62
649.289	153.62
649.494	175.62
649.698	175.62
649.903	189.62
650.107	163.62
650.312	151.62
650.516	162.62
650.721	152.62
650.925	148.62
651.13	147.62
651.334	158.62
651.539	155.62
651.743	148.62
651.947	138.62
652.152	145.62
652.356	143.62
652.56	141.62
652.764	142.62
652.969	127.62
653.173	122.62
653.377	125.62
653.581	125.62
653.785	137.62
653.99	144.62
654.194	138.62
654.398	107.62
654.602	133.62
654.806	141.62
655.01	132.62
655.214	146.62
655.418	137.62
655.622	142.62
655.826	137.62
656.03	127.62
656.234	134.62
656.438	125.62
656.642	103.62
656.846	110.62
657.049	130.62
657.253	129.62
657.457	115.62
657.661	105.62
657.865	117.62
658.068	117.62
658.272	111.62
658.476	110.62
658.68	101.62
658.883	102.62
659.087	107.62
659.291	109.62
659.494	99.62
659.698	85.62
659.901	94.62
660.105	103.62
660.309	99.62
660.512	95.62
660.716	86.62
660.919	104.62
661.123	105.62
661.326	89.62
661.53	86.62
661.733	85.62
661.936	95.62
662.14	85.62
662.343	76.62
662.546	84.62
662.75	82.62
662.953	92.62
663.156	81.62
663.36	79.62
663.563	87.62
663.766	83.62
663.969	79.62
664.173	91.62
664.376	70.62
664.579	73.62
664.782	94.62
664.985	84.62
665.188	88.62
665.391	97.62
665.594	91.62
665.797	84.62
666	92.62
666.203	79.62
666.406	88.62
666.609	77.62
666.812	73.62
667.015	68.62
667.218	89.62
667.421	78.62
667.624	94.62
667.827	97.62
668.03	76.62
668.232	80.62
668.435	76.62
668.638	89.62
668.841	99.62
669.043	84.62
669.246	109.62
669.449	85.62
669.651	101.62
669.854	100.62
670.057	99.62
670.259	87.62
670.462	77.62
670.665	87.62
670.867	99.62
671.07	86.62
671.272	81.62
671.475	95.62
671.677	87.62
671.88	78.62
672.082	80.62
672.284	76.62
672.487	77.62
672.689	76.62
672.892	65.62
