Data from 1980.PennyLincolnUp.Lamp.En5.5.200Scan.071819.P1_HRD10591_16-37-28-957.txt Node
Date: Thu Jul 18 16:37:28 EDT 2019
User: cochatt
Spectrometer: HR+D1059
Trigger mode: 1
Integration Time (sec): 1.000000E-1
Scans to average: 1
Electric dark correction enabled: true
Nonlinearity correction enabled: false
Boxcar width: 0
XAxis mode: Wavelengths
Number of Pixels in Spectrum: 2048
>>>>>Begin Spectral Data<<<<<
223.165	-22.75
223.4	-22.75
223.635	-22.75
223.869	0.25
224.104	-23.75
224.338	-12.75
224.573	-23.75
224.808	-8.75
225.042	-1.75
225.277	-0.75
225.511	-13.75
225.746	6.25
225.98	0.25
226.215	3.25
226.449	18.25
226.683	14.25
226.918	31.25
227.152	34.25
227.387	30.25
227.621	38.25
227.856	41.25
228.09	45.25
228.324	41.25
228.559	37.25
228.793	55.25
229.027	97.25
229.262	97.25
229.496	113.25
229.73	145.25
229.964	165.25
230.199	135.25
230.433	131.25
230.667	113.25
230.901	119.25
231.136	109.25
231.37	128.25
231.604	113.25
231.838	115.25
232.072	114.25
232.306	119.25
232.541	127.25
232.775	126.25
233.009	102.25
233.243	128.25
233.477	111.25
233.711	119.25
233.945	108.25
234.179	115.25
234.413	110.25
234.647	105.25
234.881	112.25
235.115	115.25
235.349	112.25
235.583	120.25
235.817	122.25
236.051	117.25
236.285	120.25
236.519	113.25
236.753	129.25
236.987	150.25
237.221	186.25
237.455	271.25
237.689	197.25
237.922	153.25
238.156	142.25
238.39	117.25
238.624	126.25
238.858	127.25
239.091	116.25
239.325	126.25
239.559	119.25
239.793	142.25
240.027	146.25
240.26	146.25
240.494	166.25
240.728	159.25
240.961	144.25
241.195	165.25
241.429	140.25
241.662	138.25
241.896	145.25
242.13	131.25
242.363	131.25
242.597	137.25
242.83	139.25
243.064	139.25
243.298	134.25
243.531	136.25
243.765	146.25
243.998	135.25
244.232	141.25
244.465	149.25
244.699	142.25
244.932	144.25
245.166	134.25
245.399	119.25
245.633	134.25
245.866	159.25
246.099	147.25
246.333	131.25
246.566	152.25
246.8	157.25
247.033	157.25
247.266	161.25
247.5	157.25
247.733	154.25
247.966	168.25
248.2	172.25
248.433	168.25
248.666	177.25
248.899	185.25
249.133	199.25
249.366	244.25
249.599	213.25
249.832	191.25
250.066	182.25
250.299	181.25
250.532	195.25
250.765	218.25
250.998	233.25
251.231	251.25
251.465	225.25
251.698	218.25
251.931	209.25
252.164	202.25
252.397	208.25
252.63	209.25
252.863	222.25
253.096	226.25
253.329	237.25
253.562	236.25
253.795	228.25
254.028	226.25
254.261	223.25
254.494	229.25
254.727	260.25
254.96	303.25
255.193	312.25
255.426	278.25
255.659	262.25
255.892	232.25
256.124	229.25
256.357	234.25
256.59	257.25
256.823	233.25
257.056	220.25
257.289	229.25
257.521	228.25
257.754	225.25
257.987	237.25
258.22	225.25
258.452	222.25
258.685	207.25
258.918	213.25
259.151	201.25
259.383	226.25
259.616	234.25
259.849	227.25
260.081	229.25
260.314	265.25
260.547	275.25
260.779	268.25
261.012	248.25
261.244	228.25
261.477	238.25
261.71	231.25
261.942	244.25
262.175	260.25
262.407	243.25
262.64	227.25
262.872	223.25
263.105	214.25
263.337	220.25
263.57	229.25
263.802	224.25
264.035	212.25
264.267	183.25
264.499	203.25
264.732	206.25
264.964	219.25
265.197	213.25
265.429	228.25
265.661	215.25
265.894	220.25
266.126	211.25
266.358	208.25
266.591	218.25
266.823	209.25
267.055	226.25
267.287	223.25
267.52	228.25
267.752	233.25
267.984	222.25
268.216	227.25
268.448	228.25
268.681	241.25
268.913	232.25
269.145	254.25
269.377	287.25
269.609	274.25
269.841	281.25
270.073	275.25
270.306	291.25
270.538	348.25
270.77	324.25
271.002	313.25
271.234	323.25
271.466	297.25
271.698	306.25
271.93	313.25
272.162	332.25
272.394	329.25
272.626	303.25
272.858	306.25
273.09	288.25
273.322	282.25
273.553	267.25
273.785	278.25
274.017	269.25
274.249	274.25
274.481	264.25
274.713	269.25
274.945	282.25
275.176	285.25
275.408	262.25
275.64	260.25
275.872	269.25
276.104	262.25
276.335	281.25
276.567	275.25
276.799	289.25
277.031	306.25
277.262	317.25
277.494	339.25
277.726	309.25
277.957	310.25
278.189	290.25
278.421	289.25
278.652	279.25
278.884	269.25
279.115	275.25
279.347	255.25
279.579	248.25
279.81	255.25
280.042	256.25
280.273	257.25
280.505	268.25
280.736	263.25
280.968	248.25
281.199	252.25
281.431	235.25
281.662	253.25
281.894	267.25
282.125	266.25
282.356	280.25
282.588	314.25
282.819	330.25
283.051	279.25
283.282	272.25
283.513	260.25
283.745	282.25
283.976	282.25
284.207	272.25
284.439	271.25
284.67	269.25
284.901	276.25
285.132	261.25
285.364	265.25
285.595	258.25
285.826	261.25
286.057	273.25
286.288	272.25
286.52	263.25
286.751	277.25
286.982	258.25
287.213	267.25
287.444	282.25
287.675	280.25
287.906	287.25
288.138	288.25
288.369	292.25
288.6	295.25
288.831	291.25
289.062	288.25
289.293	280.25
289.524	283.25
289.755	263.25
289.986	266.25
290.217	289.25
290.448	277.25
290.679	277.25
290.91	257.25
291.141	275.25
291.371	281.25
291.602	253.25
291.833	281.25
292.064	266.25
292.295	259.25
292.526	278.25
292.757	296.25
292.987	292.25
293.218	280.25
293.449	262.25
293.68	274.25
293.91	293.25
294.141	274.25
294.372	273.25
294.603	288.25
294.833	262.25
295.064	266.25
295.295	277.25
295.525	260.25
295.756	291.25
295.987	291.25
296.217	311.25
296.448	330.25
296.679	310.25
296.909	288.25
297.14	274.25
297.37	289.25
297.601	281.25
297.831	275.25
298.062	279.25
298.292	290.25
298.523	289.25
298.753	304.25
298.984	283.25
299.214	292.25
299.445	287.25
299.675	303.25
299.905	302.25
300.136	298.25
300.366	304.25
300.597	296.25
300.827	323.25
301.057	296.25
301.288	298.25
301.518	316.25
301.748	317.25
301.979	312.25
302.209	317.25
302.439	297.25
302.669	304.25
302.9	307.25
303.13	295.25
303.36	297.25
303.59	311.25
303.82	328.25
304.051	303.25
304.281	302.25
304.511	326.25
304.741	290.25
304.971	279.25
305.201	326.25
305.431	288.25
305.661	312.25
305.891	311.25
306.121	318.25
306.352	314.25
306.582	310.25
306.812	307.25
307.042	326.25
307.272	305.25
307.502	309.25
307.731	316.25
307.961	314.25
308.191	319.25
308.421	313.25
308.651	341.25
308.881	309.25
309.111	326.25
309.341	325.25
309.571	343.25
309.8	349.25
310.03	361.25
310.26	371.25
310.49	357.25
310.72	381.25
310.949	405.25
311.179	376.25
311.409	366.25
311.639	359.25
311.868	372.25
312.098	372.25
312.328	365.25
312.557	395.25
312.787	409.25
313.017	426.25
313.246	399.25
313.476	377.25
313.706	370.25
313.935	386.25
314.165	405.25
314.394	393.25
314.624	376.25
314.853	387.25
315.083	401.25
315.312	389.25
315.542	361.25
315.771	349.25
316.001	346.25
316.23	352.25
316.46	358.25
316.689	360.25
316.919	372.25
317.148	377.25
317.377	370.25
317.607	371.25
317.836	356.25
318.065	367.25
318.295	351.25
318.524	358.25
318.753	356.25
318.983	360.25
319.212	357.25
319.441	375.25
319.67	385.25
319.9	399.25
320.129	377.25
320.358	370.25
320.587	358.25
320.816	394.25
321.046	389.25
321.275	405.25
321.504	389.25
321.733	415.25
321.962	412.25
322.191	434.25
322.42	423.25
322.649	441.25
322.878	460.25
323.108	495.25
323.337	480.25
323.566	533.25
323.795	581.25
324.024	627.25
324.253	763.25
324.482	1124.25
324.71	1731.25
324.939	2465.25
325.168	2194.25
325.397	1149.25
325.626	736.25
325.855	587.25
326.084	582.25
326.313	529.25
326.542	537.25
326.77	579.25
326.999	713.25
327.228	1007.25
327.457	1506.25
327.686	1903.25
327.914	1271.25
328.143	824.25
328.372	691.25
328.6	681.25
328.829	627.25
329.058	620.25
329.287	613.25
329.515	583.25
329.744	552.25
329.972	531.25
330.201	554.25
330.43	609.25
330.658	652.25
330.887	659.25
331.115	659.25
331.344	552.25
331.572	535.25
331.801	490.25
332.03	489.25
332.258	459.25
332.486	473.25
332.715	453.25
332.943	435.25
333.172	446.25
333.4	454.25
333.629	464.25
333.857	451.25
334.085	481.25
334.314	483.25
334.542	525.25
334.771	525.25
334.999	483.25
335.227	469.25
335.455	439.25
335.684	414.25
335.912	443.25
336.14	424.25
336.369	412.25
336.597	441.25
336.825	449.25
337.053	424.25
337.281	408.25
337.51	424.25
337.738	423.25
337.966	407.25
338.194	425.25
338.422	403.25
338.65	422.25
338.878	411.25
339.106	430.25
339.334	433.25
339.562	399.25
339.79	395.25
340.018	398.25
340.246	409.25
340.474	404.25
340.702	425.25
340.93	412.25
341.158	398.25
341.386	435.25
341.614	411.25
341.842	414.25
342.07	422.25
342.298	404.25
342.526	401.25
342.754	400.25
342.981	383.25
343.209	381.25
343.437	399.25
343.665	376.25
343.893	387.25
344.12	414.25
344.348	415.25
344.576	405.25
344.804	419.25
345.031	418.25
345.259	446.25
345.487	427.25
345.714	414.25
345.942	395.25
346.17	413.25
346.397	398.25
346.625	405.25
346.853	381.25
347.08	405.25
347.308	406.25
347.535	392.25
347.763	417.25
347.99	403.25
348.218	421.25
348.445	430.25
348.673	407.25
348.9	403.25
349.128	395.25
349.355	375.25
349.583	396.25
349.81	392.25
350.037	394.25
350.265	398.25
350.492	379.25
350.72	384.25
350.947	410.25
351.174	407.25
351.402	414.25
351.629	402.25
351.856	417.25
352.083	423.25
352.311	421.25
352.538	424.25
352.765	443.25
352.992	440.25
353.22	386.25
353.447	396.25
353.674	401.25
353.901	387.25
354.128	406.25
354.355	369.25
354.583	362.25
354.81	362.25
355.037	368.25
355.264	353.25
355.491	375.25
355.718	349.25
355.945	371.25
356.172	365.25
356.399	382.25
356.626	368.25
356.853	378.25
357.08	363.25
357.307	366.25
357.534	373.25
357.761	361.25
357.988	369.25
358.215	363.25
358.441	355.25
358.668	370.25
358.895	373.25
359.122	387.25
359.349	386.25
359.576	389.25
359.802	419.25
360.029	483.25
360.256	463.25
360.483	437.25
360.709	393.25
360.936	403.25
361.163	405.25
361.39	395.25
361.616	392.25
361.843	432.25
362.07	393.25
362.296	414.25
362.523	404.25
362.749	409.25
362.976	395.25
363.203	380.25
363.429	382.25
363.656	385.25
363.882	374.25
364.109	377.25
364.335	381.25
364.562	385.25
364.788	386.25
365.015	402.25
365.241	377.25
365.468	407.25
365.694	391.25
365.92	390.25
366.147	389.25
366.373	387.25
366.599	367.25
366.826	387.25
367.052	379.25
367.278	371.25
367.505	405.25
367.731	379.25
367.957	374.25
368.184	381.25
368.41	370.25
368.636	392.25
368.862	379.25
369.089	385.25
369.315	353.25
369.541	369.25
369.767	375.25
369.993	349.25
370.219	365.25
370.445	373.25
370.672	368.25
370.898	365.25
371.124	359.25
371.35	373.25
371.576	367.25
371.802	355.25
372.028	361.25
372.254	345.25
372.48	350.25
372.706	367.25
372.932	369.25
373.158	361.25
373.384	346.25
373.61	368.25
373.835	358.25
374.061	371.25
374.287	375.25
374.513	377.25
374.739	355.25
374.965	375.25
375.191	365.25
375.416	362.25
375.642	363.25
375.868	386.25
376.094	373.25
376.319	385.25
376.545	368.25
376.771	361.25
376.997	352.25
377.222	361.25
377.448	361.25
377.674	369.25
377.899	354.25
378.125	367.25
378.35	356.25
378.576	364.25
378.802	381.25
379.027	356.25
379.253	363.25
379.478	362.25
379.704	353.25
379.929	363.25
380.155	362.25
380.38	376.25
380.606	360.25
380.831	367.25
381.057	365.25
381.282	363.25
381.507	373.25
381.733	349.25
381.958	351.25
382.184	360.25
382.409	361.25
382.634	362.25
382.86	359.25
383.085	369.25
383.31	371.25
383.535	372.25
383.761	370.25
383.986	374.25
384.211	378.25
384.436	376.25
384.662	377.25
384.887	378.25
385.112	372.25
385.337	383.25
385.562	397.25
385.787	397.25
386.013	386.25
386.238	400.25
386.463	394.25
386.688	392.25
386.913	379.25
387.138	391.25
387.363	392.25
387.588	396.25
387.813	385.25
388.038	391.25
388.263	386.25
388.488	379.25
388.713	396.25
388.938	391.25
389.163	396.25
389.387	376.25
389.612	387.25
389.837	384.25
390.062	393.25
390.287	401.25
390.512	407.25
390.736	378.25
390.961	382.25
391.186	392.25
391.411	381.25
391.636	390.25
391.86	395.25
392.085	398.25
392.31	403.25
392.534	406.25
392.759	396.25
392.984	395.25
393.208	379.25
393.433	384.25
393.658	399.25
393.882	391.25
394.107	378.25
394.331	393.25
394.556	379.25
394.78	384.25
395.005	390.25
395.229	393.25
395.454	415.25
395.678	390.25
395.903	412.25
396.127	407.25
396.352	435.25
396.576	433.25
396.801	435.25
397.025	396.25
397.249	413.25
397.474	408.25
397.698	400.25
397.922	433.25
398.147	458.25
398.371	436.25
398.595	446.25
398.82	431.25
399.044	453.25
399.268	449.25
399.492	474.25
399.717	485.25
399.941	508.25
400.165	546.25
400.389	551.25
400.613	497.25
400.837	471.25
401.062	465.25
401.286	443.25
401.51	439.25
401.734	440.25
401.958	454.25
402.182	452.25
402.406	469.25
402.63	466.25
402.854	443.25
403.078	447.25
403.302	450.25
403.526	462.25
403.75	468.25
403.974	455.25
404.198	462.25
404.422	459.25
404.645	470.25
404.869	474.25
405.093	517.25
405.317	546.25
405.541	583.25
405.765	528.25
405.988	522.25
406.212	493.25
406.436	535.25
406.66	553.25
406.883	509.25
407.107	527.25
407.331	586.25
407.555	638.25
407.778	639.25
408.002	563.25
408.226	490.25
408.449	507.25
408.673	492.25
408.896	536.25
409.12	555.25
409.344	581.25
409.567	506.25
409.791	493.25
410.014	477.25
410.238	447.25
410.461	456.25
410.685	465.25
410.908	507.25
411.132	533.25
411.355	567.25
411.578	535.25
411.802	506.25
412.025	481.25
412.249	476.25
412.472	478.25
412.695	521.25
412.919	522.25
413.142	479.25
413.365	442.25
413.589	433.25
413.812	450.25
414.035	448.25
414.258	447.25
414.482	435.25
414.705	445.25
414.928	400.25
415.151	433.25
415.374	423.25
415.597	439.25
415.821	424.25
416.044	429.25
416.267	451.25
416.49	445.25
416.713	448.25
416.936	447.25
417.159	433.25
417.382	440.25
417.605	443.25
417.828	464.25
418.051	456.25
418.274	463.25
418.497	446.25
418.72	448.25
418.943	448.25
419.166	433.25
419.389	475.25
419.611	466.25
419.834	460.25
420.057	452.25
420.28	480.25
420.503	479.25
420.726	487.25
420.948	478.25
421.171	523.25
421.394	558.25
421.617	493.25
421.839	484.25
422.062	465.25
422.285	490.25
422.507	570.25
422.73	626.25
422.953	598.25
423.175	555.25
423.398	502.25
423.621	501.25
423.843	516.25
424.066	502.25
424.288	519.25
424.511	534.25
424.733	598.25
424.956	705.25
425.178	646.25
425.401	667.25
425.623	686.25
425.846	575.25
426.068	537.25
426.291	527.25
426.513	522.25
426.735	525.25
426.958	581.25
427.18	655.25
427.402	806.25
427.625	863.25
427.847	782.25
428.069	659.25
428.292	600.25
428.514	549.25
428.736	496.25
428.958	514.25
429.181	479.25
429.403	463.25
429.625	489.25
429.847	523.25
430.069	594.25
430.292	615.25
430.514	509.25
430.736	483.25
430.958	474.25
431.18	477.25
431.402	453.25
431.624	452.25
431.846	439.25
432.068	451.25
432.29	448.25
432.512	467.25
432.734	458.25
432.956	453.25
433.178	461.25
433.4	473.25
433.622	462.25
433.844	447.25
434.066	443.25
434.287	459.25
434.509	451.25
434.731	462.25
434.953	449.25
435.175	473.25
435.397	524.25
435.618	533.25
435.84	557.25
436.062	663.25
436.284	723.25
436.505	623.25
436.727	532.25
436.949	497.25
437.17	498.25
437.392	489.25
437.614	508.25
437.835	559.25
438.057	638.25
438.278	755.25
438.5	734.25
438.721	797.25
438.943	783.25
439.165	626.25
439.386	563.25
439.608	569.25
439.829	559.25
440.05	579.25
440.272	623.25
440.493	608.25
440.715	556.25
440.936	511.25
441.158	497.25
441.379	479.25
441.6	505.25
441.822	561.25
442.043	560.25
442.264	671.25
442.486	734.25
442.707	600.25
442.928	538.25
443.149	572.25
443.371	564.25
443.592	629.25
443.813	695.25
444.034	779.25
444.255	634.25
444.476	559.25
444.698	521.25
444.919	529.25
445.14	662.25
445.361	608.25
445.582	583.25
445.803	633.25
446.024	766.25
446.245	765.25
446.466	717.25
446.687	595.25
446.908	538.25
447.129	498.25
447.35	495.25
447.571	483.25
447.792	466.25
448.013	499.25
448.234	523.25
448.455	562.25
448.675	715.25
448.896	809.25
449.117	665.25
449.338	666.25
449.559	757.25
449.779	839.25
450	694.25
450.221	557.25
450.442	512.25
450.662	473.25
450.883	509.25
451.104	535.25
451.324	521.25
451.545	480.25
451.766	480.25
451.986	438.25
452.207	435.25
452.428	437.25
452.648	466.25
452.869	449.25
453.089	453.25
453.31	481.25
453.53	466.25
453.751	448.25
453.971	456.25
454.192	463.25
454.412	458.25
454.633	439.25
454.853	417.25
455.073	452.25
455.294	457.25
455.514	536.25
455.734	568.25
455.955	459.25
456.175	411.25
456.395	416.25
456.616	407.25
456.836	409.25
457.056	401.25
457.276	402.25
457.497	407.25
457.717	405.25
457.937	413.25
458.157	423.25
458.377	426.25
458.598	450.25
458.818	530.25
459.038	592.25
459.258	600.25
459.478	517.25
459.698	465.25
459.918	452.25
460.138	436.25
460.358	443.25
460.578	441.25
460.798	445.25
461.018	434.25
461.238	433.25
461.458	444.25
461.678	429.25
461.898	435.25
462.118	425.25
462.338	419.25
462.558	439.25
462.777	441.25
462.997	459.25
463.217	459.25
463.437	476.25
463.657	469.25
463.876	476.25
464.096	472.25
464.316	478.25
464.536	489.25
464.755	461.25
464.975	471.25
465.195	535.25
465.414	645.25
465.634	557.25
465.854	497.25
466.073	460.25
466.293	447.25
466.512	463.25
466.732	432.25
466.951	436.25
467.171	419.25
467.391	441.25
467.61	447.25
467.829	464.25
468.049	455.25
468.268	447.25
468.488	426.25
468.707	421.25
468.927	430.25
469.146	421.25
469.365	424.25
469.585	423.25
469.804	448.25
470.023	446.25
470.243	466.25
470.462	434.25
470.681	473.25
470.901	468.25
471.12	448.25
471.339	448.25
471.558	438.25
471.777	448.25
471.997	462.25
472.216	466.25
472.435	514.25
472.654	481.25
472.873	457.25
473.092	447.25
473.311	469.25
473.53	459.25
473.749	452.25
473.968	491.25
474.187	628.25
474.406	661.25
474.625	537.25
474.844	464.25
475.063	449.25
475.282	447.25
475.501	479.25
475.72	450.25
475.939	466.25
476.158	451.25
476.377	464.25
476.596	460.25
476.814	472.25
477.033	461.25
477.252	472.25
477.471	474.25
477.69	471.25
477.908	485.25
478.127	469.25
478.346	470.25
478.564	482.25
478.783	480.25
479.002	515.25
479.22	517.25
479.439	525.25
479.658	551.25
479.876	544.25
480.095	572.25
480.313	566.25
480.532	563.25
480.751	541.25
480.969	556.25
481.188	630.25
481.406	707.25
481.624	594.25
481.843	570.25
482.061	560.25
482.28	554.25
482.498	529.25
482.717	525.25
482.935	540.25
483.153	514.25
483.372	536.25
483.59	533.25
483.808	531.25
484.027	522.25
484.245	529.25
484.463	541.25
484.681	561.25
484.9	551.25
485.118	522.25
485.336	551.25
485.554	534.25
485.772	564.25
485.99	555.25
486.209	541.25
486.427	569.25
486.645	591.25
486.863	599.25
487.081	599.25
487.299	584.25
487.517	574.25
487.735	569.25
487.953	585.25
488.171	581.25
488.389	588.25
488.607	587.25
488.825	597.25
489.043	574.25
489.261	595.25
489.479	593.25
489.696	576.25
489.914	581.25
490.132	605.25
490.35	600.25
490.568	592.25
490.786	626.25
491.003	639.25
491.221	658.25
491.439	662.25
491.657	664.25
491.874	659.25
492.092	663.25
492.31	667.25
492.527	683.25
492.745	690.25
492.963	689.25
493.18	687.25
493.398	679.25
493.615	667.25
493.833	711.25
494.05	720.25
494.268	689.25
494.485	703.25
494.703	706.25
494.92	680.25
495.138	678.25
495.355	698.25
495.573	704.25
495.79	701.25
496.008	696.25
496.225	703.25
496.442	693.25
496.66	711.25
496.877	678.25
497.094	688.25
497.312	727.25
497.529	707.25
497.746	707.25
497.963	723.25
498.181	741.25
498.398	733.25
498.615	742.25
498.832	772.25
499.049	749.25
499.267	742.25
499.484	766.25
499.701	784.25
499.918	781.25
500.135	832.25
500.352	831.25
500.569	847.25
500.786	831.25
501.003	846.25
501.22	842.25
501.437	817.25
501.654	832.25
501.871	804.25
502.088	815.25
502.305	783.25
502.522	750.25
502.739	737.25
502.956	689.25
503.172	711.25
503.389	700.25
503.606	721.25
503.823	726.25
504.04	706.25
504.256	685.25
504.473	683.25
504.69	670.25
504.907	670.25
505.123	677.25
505.34	681.25
505.557	687.25
505.773	673.25
505.99	680.25
506.207	674.25
506.423	656.25
506.64	650.25
506.856	655.25
507.073	658.25
507.289	669.25
507.506	682.25
507.722	687.25
507.939	721.25
508.155	680.25
508.372	665.25
508.588	641.25
508.805	633.25
509.021	651.25
509.238	673.25
509.454	650.25
509.67	695.25
509.887	657.25
510.103	673.25
510.319	668.25
510.536	788.25
510.752	1355.25
510.968	1086.25
511.184	666.25
511.401	640.25
511.617	649.25
511.833	646.25
512.049	627.25
512.265	600.25
512.481	611.25
512.698	617.25
512.914	629.25
513.13	625.25
513.346	627.25
513.562	635.25
513.778	628.25
513.994	634.25
514.21	654.25
514.426	695.25
514.642	722.25
514.858	758.25
515.074	777.25
515.29	1000.25
515.506	1559.25
515.721	1222.25
515.937	776.25
516.153	707.25
516.369	691.25
516.585	642.25
516.801	659.25
517.016	618.25
517.232	602.25
517.448	617.25
517.664	633.25
517.879	606.25
518.095	625.25
518.311	623.25
518.527	573.25
518.742	607.25
518.958	606.25
519.173	612.25
519.389	605.25
519.605	593.25
519.82	610.25
520.036	657.25
520.251	692.25
520.467	707.25
520.682	691.25
520.898	714.25
521.113	737.25
521.329	817.25
521.544	916.25
521.76	1181.25
521.975	2064.25
522.19	2025.25
522.406	1055.25
522.621	784.25
522.836	676.25
523.052	647.25
523.267	595.25
523.482	581.25
523.698	570.25
523.913	584.25
524.128	553.25
524.343	566.25
524.559	543.25
524.774	553.25
524.989	539.25
525.204	534.25
525.419	534.25
525.634	530.25
525.849	517.25
526.064	513.25
526.28	498.25
526.495	506.25
526.71	495.25
526.925	480.25
527.14	487.25
527.355	504.25
527.57	501.25
527.785	489.25
527.999	481.25
528.214	481.25
528.429	494.25
528.644	510.25
528.859	502.25
529.074	508.25
529.289	520.25
529.503	646.25
529.718	594.25
529.933	529.25
530.148	539.25
530.363	510.25
530.577	517.25
530.792	487.25
531.007	486.25
531.221	483.25
531.436	487.25
531.651	494.25
531.865	469.25
532.08	463.25
532.295	505.25
532.509	462.25
532.724	462.25
532.938	463.25
533.153	464.25
533.367	455.25
533.582	476.25
533.796	465.25
534.011	476.25
534.225	445.25
534.44	462.25
534.654	440.25
534.868	463.25
535.083	433.25
535.297	446.25
535.511	460.25
535.726	462.25
535.94	467.25
536.154	445.25
536.369	463.25
536.583	446.25
536.797	449.25
537.011	440.25
537.225	457.25
537.44	425.25
537.654	455.25
537.868	434.25
538.082	435.25
538.296	438.25
538.51	453.25
538.724	443.25
538.938	430.25
539.153	441.25
539.367	458.25
539.581	458.25
539.795	447.25
540.009	472.25
540.222	436.25
540.436	430.25
540.65	422.25
540.864	462.25
541.078	448.25
541.292	462.25
541.506	461.25
541.72	450.25
541.934	449.25
542.147	424.25
542.361	429.25
542.575	420.25
542.789	436.25
543.002	436.25
543.216	433.25
543.43	429.25
543.644	465.25
543.857	463.25
544.071	434.25
544.285	451.25
544.498	453.25
544.712	440.25
544.925	437.25
545.139	422.25
545.352	408.25
545.566	426.25
545.779	442.25
545.993	435.25
546.206	407.25
546.42	423.25
546.633	408.25
546.847	431.25
547.06	413.25
547.274	419.25
547.487	394.25
547.7	405.25
547.914	388.25
548.127	405.25
548.34	420.25
548.554	383.25
548.767	445.25
548.98	422.25
549.193	413.25
549.407	401.25
549.62	413.25
549.833	431.25
550.046	421.25
550.259	381.25
550.473	399.25
550.686	419.25
550.899	402.25
551.112	405.25
551.325	402.25
551.538	411.25
551.751	399.25
551.964	415.25
552.177	406.25
552.39	405.25
552.603	407.25
552.816	391.25
553.029	422.25
553.242	424.25
553.455	432.25
553.667	423.25
553.88	425.25
554.093	442.25
554.306	425.25
554.519	413.25
554.732	423.25
554.944	395.25
555.157	409.25
555.37	382.25
555.583	385.25
555.795	387.25
556.008	395.25
556.221	371.25
556.433	383.25
556.646	381.25
556.859	367.25
557.071	365.25
557.284	366.25
557.496	393.25
557.709	379.25
557.921	371.25
558.134	369.25
558.346	377.25
558.559	367.25
558.771	370.25
558.984	354.25
559.196	389.25
559.409	381.25
559.621	365.25
559.833	370.25
560.046	360.25
560.258	361.25
560.47	342.25
560.683	384.25
560.895	389.25
561.107	354.25
561.32	351.25
561.532	363.25
561.744	355.25
561.956	385.25
562.168	368.25
562.381	377.25
562.593	377.25
562.805	376.25
563.017	358.25
563.229	364.25
563.441	378.25
563.653	371.25
563.865	366.25
564.077	370.25
564.289	362.25
564.501	371.25
564.713	378.25
564.925	395.25
565.137	372.25
565.349	387.25
565.561	380.25
565.773	405.25
565.985	392.25
566.197	406.25
566.408	414.25
566.62	421.25
566.832	391.25
567.044	418.25
567.255	416.25
567.467	400.25
567.679	413.25
567.891	429.25
568.102	423.25
568.314	413.25
568.526	394.25
568.737	384.25
568.949	380.25
569.161	386.25
569.372	367.25
569.584	381.25
569.795	378.25
570.007	381.25
570.218	431.25
570.43	414.25
570.641	350.25
570.853	356.25
571.064	366.25
571.276	338.25
571.487	347.25
571.698	351.25
571.91	328.25
572.121	340.25
572.333	344.25
572.544	322.25
572.755	338.25
572.966	335.25
573.178	331.25
573.389	341.25
573.6	322.25
573.811	319.25
574.023	341.25
574.234	317.25
574.445	314.25
574.656	323.25
574.867	313.25
575.078	318.25
575.289	319.25
575.501	319.25
575.712	329.25
575.923	293.25
576.134	305.25
576.345	305.25
576.556	306.25
576.767	329.25
576.978	293.25
577.188	312.25
577.399	313.25
577.61	309.25
577.821	305.25
578.032	304.25
578.243	369.25
578.454	627.25
578.665	465.25
578.875	335.25
579.086	299.25
579.297	307.25
579.508	300.25
579.718	308.25
579.929	306.25
580.14	286.25
580.35	306.25
580.561	303.25
580.772	293.25
580.982	295.25
581.193	286.25
581.403	285.25
581.614	293.25
581.825	285.25
582.035	299.25
582.246	301.25
582.456	298.25
582.667	293.25
582.877	296.25
583.087	301.25
583.298	283.25
583.508	293.25
583.719	269.25
583.929	275.25
584.139	281.25
584.35	280.25
584.56	287.25
584.77	284.25
584.981	291.25
585.191	321.25
585.401	304.25
585.611	283.25
585.821	279.25
586.032	299.25
586.242	294.25
586.452	289.25
586.662	269.25
586.872	275.25
587.082	265.25
587.292	277.25
587.502	287.25
587.713	266.25
587.923	287.25
588.133	253.25
588.343	276.25
588.553	280.25
588.762	293.25
588.972	281.25
589.182	273.25
589.392	286.25
589.602	269.25
589.812	278.25
590.022	263.25
590.232	273.25
590.441	285.25
590.651	266.25
590.861	261.25
591.071	279.25
591.281	289.25
591.49	277.25
591.7	273.25
591.91	298.25
592.119	270.25
592.329	289.25
592.539	274.25
592.748	273.25
592.958	285.25
593.167	275.25
593.377	285.25
593.587	297.25
593.796	293.25
594.006	273.25
594.215	287.25
594.424	278.25
594.634	271.25
594.843	283.25
595.053	285.25
595.262	275.25
595.472	280.25
595.681	269.25
595.89	271.25
596.1	263.25
596.309	267.25
596.518	265.25
596.727	267.25
596.937	247.25
597.146	245.25
597.355	273.25
597.564	275.25
597.774	263.25
597.983	250.25
598.192	259.25
598.401	265.25
598.61	254.25
598.819	245.25
599.028	254.25
599.237	246.25
599.446	255.25
599.655	265.25
599.864	257.25
600.073	264.25
600.282	249.25
600.491	249.25
600.7	233.25
600.909	249.25
601.118	250.25
601.327	244.25
601.536	247.25
601.745	233.25
601.953	255.25
602.162	235.25
602.371	248.25
602.58	253.25
602.789	241.25
602.997	249.25
603.206	256.25
603.415	227.25
603.623	242.25
603.832	247.25
604.041	236.25
604.249	237.25
604.458	231.25
604.666	227.25
604.875	219.25
605.084	231.25
605.292	230.25
605.501	240.25
605.709	242.25
605.918	242.25
606.126	231.25
606.334	231.25
606.543	227.25
606.751	224.25
606.96	234.25
607.168	216.25
607.376	234.25
607.585	219.25
607.793	234.25
608.001	213.25
608.21	229.25
608.418	233.25
608.626	237.25
608.834	229.25
609.043	224.25
609.251	216.25
609.459	223.25
609.667	223.25
609.875	218.25
610.083	223.25
610.291	221.25
610.499	214.25
610.707	248.25
610.916	229.25
611.124	217.25
611.332	256.25
611.54	239.25
611.748	237.25
611.955	243.25
612.163	247.25
612.371	238.25
612.579	230.25
612.787	219.25
612.995	226.25
613.203	233.25
613.411	226.25
613.618	216.25
613.826	230.25
614.034	231.25
614.242	222.25
614.449	224.25
614.657	217.25
614.865	222.25
615.072	234.25
615.28	222.25
615.488	227.25
615.695	206.25
615.903	225.25
616.111	217.25
616.318	216.25
616.526	222.25
616.733	216.25
616.941	219.25
617.148	244.25
617.356	222.25
617.563	216.25
617.771	211.25
617.978	201.25
618.185	218.25
618.393	207.25
618.6	232.25
618.807	213.25
619.015	233.25
619.222	210.25
619.429	232.25
619.637	196.25
619.844	209.25
620.051	218.25
620.258	211.25
620.466	212.25
620.673	213.25
620.88	208.25
621.087	220.25
621.294	201.25
621.501	218.25
621.708	215.25
621.915	201.25
622.122	222.25
622.329	199.25
622.536	216.25
622.743	224.25
622.95	207.25
623.157	196.25
623.364	220.25
623.571	212.25
623.778	214.25
623.985	184.25
624.192	197.25
624.399	182.25
624.606	209.25
624.812	209.25
625.019	197.25
625.226	209.25
625.433	217.25
625.639	201.25
625.846	198.25
626.053	191.25
626.259	187.25
626.466	200.25
626.673	211.25
626.879	204.25
627.086	185.25
627.293	199.25
627.499	187.25
627.706	191.25
627.912	189.25
628.119	206.25
628.325	189.25
628.532	213.25
628.738	207.25
628.945	196.25
629.151	191.25
629.357	191.25
629.564	196.25
629.77	195.25
629.976	186.25
630.183	176.25
630.389	187.25
630.595	211.25
630.802	204.25
631.008	193.25
631.214	185.25
631.42	184.25
631.627	197.25
631.833	198.25
632.039	181.25
632.245	175.25
632.451	191.25
632.657	174.25
632.863	183.25
633.069	190.25
633.275	185.25
633.481	173.25
633.688	180.25
633.893	190.25
634.099	174.25
634.305	166.25
634.511	173.25
634.717	173.25
634.923	167.25
635.129	171.25
635.335	181.25
635.541	181.25
635.747	174.25
635.952	186.25
636.158	175.25
636.364	171.25
636.57	168.25
636.775	165.25
636.981	166.25
637.187	157.25
637.392	179.25
637.598	168.25
637.804	175.25
638.009	170.25
638.215	186.25
638.421	159.25
638.626	168.25
638.832	189.25
639.037	167.25
639.243	179.25
639.448	168.25
639.654	177.25
639.859	167.25
640.065	153.25
640.27	185.25
640.475	140.25
640.681	159.25
640.886	157.25
641.091	173.25
641.297	168.25
641.502	161.25
641.707	164.25
641.913	161.25
642.118	161.25
642.323	159.25
642.528	151.25
642.733	162.25
642.939	161.25
643.144	160.25
643.349	162.25
643.554	152.25
643.759	157.25
643.964	164.25
644.169	138.25
644.374	157.25
644.579	165.25
644.784	168.25
644.989	163.25
645.194	169.25
645.399	147.25
645.604	157.25
645.809	159.25
646.014	159.25
646.219	159.25
646.423	154.25
646.628	163.25
646.833	169.25
647.038	158.25
647.243	150.25
647.447	150.25
647.652	155.25
647.857	153.25
648.062	169.25
648.266	166.25
648.471	165.25
648.676	158.25
648.88	170.25
649.085	149.25
649.289	169.25
649.494	166.25
649.698	177.25
649.903	179.25
650.107	164.25
650.312	145.25
650.516	159.25
650.721	146.25
650.925	140.25
651.13	135.25
651.334	160.25
651.539	147.25
651.743	139.25
651.947	156.25
652.152	150.25
652.356	139.25
652.56	126.25
652.764	129.25
652.969	147.25
653.173	126.25
653.377	123.25
653.581	138.25
653.785	136.25
653.99	145.25
654.194	136.25
654.398	127.25
654.602	138.25
654.806	110.25
655.01	132.25
655.214	138.25
655.418	119.25
655.622	123.25
655.826	136.25
656.03	106.25
656.234	131.25
656.438	121.25
656.642	143.25
656.846	118.25
657.049	116.25
657.253	109.25
657.457	115.25
657.661	100.25
657.865	113.25
658.068	93.25
658.272	97.25
658.476	97.25
658.68	106.25
658.883	102.25
659.087	72.25
659.291	95.25
659.494	92.25
659.698	96.25
659.901	105.25
660.105	89.25
660.309	96.25
660.512	85.25
660.716	79.25
660.919	82.25
661.123	96.25
661.326	106.25
661.53	83.25
661.733	96.25
661.936	101.25
662.14	93.25
662.343	86.25
662.546	86.25
662.75	87.25
662.953	82.25
663.156	73.25
663.36	99.25
663.563	75.25
663.766	82.25
663.969	79.25
664.173	76.25
664.376	81.25
664.579	75.25
664.782	83.25
664.985	82.25
665.188	81.25
665.391	77.25
665.594	67.25
665.797	84.25
666	91.25
666.203	83.25
666.406	80.25
666.609	83.25
666.812	85.25
667.015	80.25
667.218	84.25
667.421	66.25
667.624	71.25
667.827	84.25
668.03	70.25
668.232	94.25
668.435	82.25
668.638	76.25
668.841	73.25
669.043	73.25
669.246	75.25
669.449	88.25
669.651	88.25
669.854	80.25
670.057	71.25
670.259	82.25
670.462	89.25
670.665	63.25
670.867	75.25
671.07	81.25
671.272	81.25
671.475	75.25
671.677	86.25
671.88	86.25
672.082	80.25
672.284	92.25
672.487	74.25
672.689	72.25
672.892	87.25
