Data from 1980.PennyLincolnUp.Lamp.En5.5.200Scan.071819.P1_HRD10591_16-37-51-957.txt Node
Date: Thu Jul 18 16:37:51 EDT 2019
User: cochatt
Spectrometer: HR+D1059
Trigger mode: 1
Integration Time (sec): 1.000000E-1
Scans to average: 1
Electric dark correction enabled: true
Nonlinearity correction enabled: false
Boxcar width: 0
XAxis mode: Wavelengths
Number of Pixels in Spectrum: 2048
>>>>>Begin Spectral Data<<<<<
223.165	-20.19
223.4	-20.19
223.635	-20.19
223.869	-16.19
224.104	-18.19
224.338	-24.19
224.573	-8.19
224.808	1.81
225.042	7.81
225.277	-2.19
225.511	-13.19
225.746	23.81
225.98	7.81
226.215	0.81
226.449	7.81
226.683	12.81
226.918	18.81
227.152	20.81
227.387	28.81
227.621	33.81
227.856	44.81
228.09	56.81
228.324	45.81
228.559	47.81
228.793	63.81
229.027	90.81
229.262	106.81
229.496	121.81
229.73	163.81
229.964	161.81
230.199	139.81
230.433	116.81
230.667	110.81
230.901	100.81
231.136	115.81
231.37	99.81
231.604	118.81
231.838	123.81
232.072	105.81
232.306	112.81
232.541	117.81
232.775	121.81
233.009	116.81
233.243	107.81
233.477	100.81
233.711	125.81
233.945	119.81
234.179	116.81
234.413	106.81
234.647	125.81
234.881	95.81
235.115	95.81
235.349	106.81
235.583	120.81
235.817	129.81
236.051	134.81
236.285	115.81
236.519	103.81
236.753	129.81
236.987	143.81
237.221	185.81
237.455	252.81
237.689	210.81
237.922	147.81
238.156	133.81
238.39	129.81
238.624	117.81
238.858	126.81
239.091	128.81
239.325	114.81
239.559	134.81
239.793	129.81
240.027	129.81
240.26	132.81
240.494	156.81
240.728	152.81
240.961	167.81
241.195	157.81
241.429	133.81
241.662	142.81
241.896	124.81
242.13	127.81
242.363	145.81
242.597	136.81
242.83	129.81
243.064	127.81
243.298	140.81
243.531	150.81
243.765	145.81
243.998	135.81
244.232	124.81
244.465	143.81
244.699	149.81
244.932	142.81
245.166	141.81
245.399	156.81
245.633	145.81
245.866	147.81
246.099	167.81
246.333	153.81
246.566	144.81
246.8	142.81
247.033	147.81
247.266	160.81
247.5	165.81
247.733	186.81
247.966	179.81
248.2	184.81
248.433	176.81
248.666	165.81
248.899	201.81
249.133	203.81
249.366	213.81
249.599	187.81
249.832	183.81
250.066	189.81
250.299	178.81
250.532	195.81
250.765	217.81
250.998	231.81
251.231	226.81
251.465	207.81
251.698	221.81
251.931	208.81
252.164	209.81
252.397	210.81
252.63	219.81
252.863	205.81
253.096	230.81
253.329	244.81
253.562	249.81
253.795	252.81
254.028	236.81
254.261	251.81
254.494	249.81
254.727	258.81
254.96	289.81
255.193	285.81
255.426	279.81
255.659	242.81
255.892	244.81
256.124	247.81
256.357	223.81
256.59	223.81
256.823	226.81
257.056	227.81
257.289	225.81
257.521	225.81
257.754	213.81
257.987	205.81
258.22	205.81
258.452	210.81
258.685	214.81
258.918	209.81
259.151	195.81
259.383	225.81
259.616	221.81
259.849	234.81
260.081	230.81
260.314	252.81
260.547	276.81
260.779	260.81
261.012	247.81
261.244	224.81
261.477	223.81
261.71	243.81
261.942	234.81
262.175	244.81
262.407	233.81
262.64	223.81
262.872	204.81
263.105	225.81
263.337	211.81
263.57	193.81
263.802	208.81
264.035	205.81
264.267	202.81
264.499	212.81
264.732	223.81
264.964	216.81
265.197	200.81
265.429	214.81
265.661	223.81
265.894	230.81
266.126	229.81
266.358	215.81
266.591	225.81
266.823	236.81
267.055	204.81
267.287	223.81
267.52	219.81
267.752	211.81
267.984	209.81
268.216	209.81
268.448	217.81
268.681	243.81
268.913	239.81
269.145	255.81
269.377	272.81
269.609	284.81
269.841	273.81
270.073	288.81
270.306	283.81
270.538	334.81
270.77	325.81
271.002	329.81
271.234	307.81
271.466	303.81
271.698	321.81
271.93	326.81
272.162	318.81
272.394	335.81
272.626	315.81
272.858	300.81
273.09	275.81
273.322	288.81
273.553	273.81
273.785	262.81
274.017	276.81
274.249	259.81
274.481	248.81
274.713	259.81
274.945	257.81
275.176	275.81
275.408	277.81
275.64	279.81
275.872	260.81
276.104	262.81
276.335	277.81
276.567	268.81
276.799	286.81
277.031	322.81
277.262	331.81
277.494	327.81
277.726	310.81
277.957	287.81
278.189	277.81
278.421	271.81
278.652	277.81
278.884	261.81
279.115	268.81
279.347	277.81
279.579	242.81
279.81	240.81
280.042	257.81
280.273	267.81
280.505	269.81
280.736	248.81
280.968	261.81
281.199	258.81
281.431	268.81
281.662	248.81
281.894	246.81
282.125	258.81
282.356	268.81
282.588	316.81
282.819	306.81
283.051	275.81
283.282	256.81
283.513	267.81
283.745	261.81
283.976	284.81
284.207	262.81
284.439	256.81
284.67	270.81
284.901	272.81
285.132	268.81
285.364	243.81
285.595	263.81
285.826	274.81
286.057	265.81
286.288	247.81
286.52	268.81
286.751	268.81
286.982	262.81
287.213	274.81
287.444	257.81
287.675	273.81
287.906	294.81
288.138	267.81
288.369	275.81
288.6	289.81
288.831	266.81
289.062	269.81
289.293	281.81
289.524	275.81
289.755	265.81
289.986	274.81
290.217	288.81
290.448	285.81
290.679	264.81
290.91	273.81
291.141	251.81
291.371	266.81
291.602	280.81
291.833	274.81
292.064	249.81
292.295	281.81
292.526	278.81
292.757	256.81
292.987	261.81
293.218	256.81
293.449	254.81
293.68	278.81
293.91	278.81
294.141	257.81
294.372	265.81
294.603	269.81
294.833	266.81
295.064	287.81
295.295	279.81
295.525	272.81
295.756	279.81
295.987	275.81
296.217	305.81
296.448	326.81
296.679	295.81
296.909	278.81
297.14	275.81
297.37	265.81
297.601	295.81
297.831	267.81
298.062	291.81
298.292	284.81
298.523	281.81
298.753	278.81
298.984	281.81
299.214	272.81
299.445	280.81
299.675	275.81
299.905	291.81
300.136	283.81
300.366	265.81
300.597	274.81
300.827	316.81
301.057	303.81
301.288	300.81
301.518	334.81
301.748	311.81
301.979	301.81
302.209	307.81
302.439	300.81
302.669	310.81
302.9	282.81
303.13	294.81
303.36	307.81
303.59	310.81
303.82	327.81
304.051	302.81
304.281	320.81
304.511	307.81
304.741	318.81
304.971	303.81
305.201	288.81
305.431	298.81
305.661	314.81
305.891	281.81
306.121	295.81
306.352	324.81
306.582	312.81
306.812	305.81
307.042	319.81
307.272	316.81
307.502	307.81
307.731	309.81
307.961	316.81
308.191	313.81
308.421	312.81
308.651	325.81
308.881	322.81
309.111	333.81
309.341	315.81
309.571	340.81
309.8	350.81
310.03	351.81
310.26	363.81
310.49	357.81
310.72	371.81
310.949	385.81
311.179	385.81
311.409	362.81
311.639	377.81
311.868	364.81
312.098	378.81
312.328	367.81
312.557	385.81
312.787	397.81
313.017	388.81
313.246	376.81
313.476	375.81
313.706	356.81
313.935	369.81
314.165	398.81
314.394	407.81
314.624	400.81
314.853	381.81
315.083	374.81
315.312	362.81
315.542	369.81
315.771	355.81
316.001	341.81
316.23	336.81
316.46	355.81
316.689	348.81
316.919	376.81
317.148	407.81
317.377	371.81
317.607	378.81
317.836	381.81
318.065	365.81
318.295	367.81
318.524	348.81
318.753	351.81
318.983	364.81
319.212	360.81
319.441	367.81
319.67	390.81
319.9	363.81
320.129	360.81
320.358	376.81
320.587	369.81
320.816	395.81
321.046	397.81
321.275	390.81
321.504	395.81
321.733	384.81
321.962	395.81
322.191	387.81
322.42	419.81
322.649	436.81
322.878	448.81
323.108	472.81
323.337	498.81
323.566	534.81
323.795	559.81
324.024	631.81
324.253	748.81
324.482	1114.81
324.71	1686.81
324.939	2395.81
325.168	2126.81
325.397	1142.81
325.626	747.81
325.855	601.81
326.084	538.81
326.313	519.81
326.542	527.81
326.77	592.81
326.999	682.81
327.228	972.81
327.457	1497.81
327.686	1833.81
327.914	1243.81
328.143	795.81
328.372	683.81
328.6	661.81
328.829	614.81
329.058	620.81
329.287	615.81
329.515	576.81
329.744	549.81
329.972	529.81
330.201	551.81
330.43	585.81
330.658	643.81
330.887	649.81
331.115	639.81
331.344	533.81
331.572	500.81
331.801	482.81
332.03	487.81
332.258	460.81
332.486	450.81
332.715	448.81
332.943	425.81
333.172	416.81
333.4	431.81
333.629	441.81
333.857	464.81
334.085	452.81
334.314	483.81
334.542	497.81
334.771	533.81
334.999	487.81
335.227	451.81
335.455	434.81
335.684	439.81
335.912	421.81
336.14	415.81
336.369	400.81
336.597	429.81
336.825	428.81
337.053	425.81
337.281	403.81
337.51	424.81
337.738	431.81
337.966	418.81
338.194	399.81
338.422	417.81
338.65	418.81
338.878	392.81
339.106	405.81
339.334	403.81
339.562	409.81
339.79	423.81
340.018	394.81
340.246	403.81
340.474	427.81
340.702	415.81
340.93	395.81
341.158	404.81
341.386	409.81
341.614	419.81
341.842	412.81
342.07	403.81
342.298	395.81
342.526	382.81
342.754	403.81
342.981	381.81
343.209	393.81
343.437	380.81
343.665	386.81
343.893	398.81
344.12	394.81
344.348	403.81
344.576	402.81
344.804	417.81
345.031	422.81
345.259	439.81
345.487	426.81
345.714	415.81
345.942	400.81
346.17	394.81
346.397	397.81
346.625	382.81
346.853	390.81
347.08	392.81
347.308	406.81
347.535	402.81
347.763	404.81
347.99	419.81
348.218	414.81
348.445	404.81
348.673	415.81
348.9	410.81
349.128	368.81
349.355	384.81
349.583	379.81
349.81	371.81
350.037	361.81
350.265	364.81
350.492	372.81
350.72	387.81
350.947	380.81
351.174	405.81
351.402	408.81
351.629	410.81
351.856	387.81
352.083	424.81
352.311	443.81
352.538	419.81
352.765	389.81
352.992	401.81
353.22	407.81
353.447	394.81
353.674	371.81
353.901	378.81
354.128	380.81
354.355	349.81
354.583	368.81
354.81	371.81
355.037	378.81
355.264	348.81
355.491	367.81
355.718	359.81
355.945	374.81
356.172	370.81
356.399	328.81
356.626	343.81
356.853	376.81
357.08	339.81
357.307	349.81
357.534	368.81
357.761	354.81
357.988	349.81
358.215	350.81
358.441	371.81
358.668	343.81
358.895	373.81
359.122	373.81
359.349	376.81
359.576	409.81
359.802	427.81
360.029	450.81
360.256	475.81
360.483	452.81
360.709	408.81
360.936	382.81
361.163	407.81
361.39	417.81
361.616	412.81
361.843	400.81
362.07	400.81
362.296	410.81
362.523	393.81
362.749	412.81
362.976	385.81
363.203	394.81
363.429	383.81
363.656	388.81
363.882	381.81
364.109	371.81
364.335	363.81
364.562	376.81
364.788	379.81
365.015	387.81
365.241	375.81
365.468	379.81
365.694	387.81
365.92	395.81
366.147	375.81
366.373	372.81
366.599	365.81
366.826	381.81
367.052	356.81
367.278	375.81
367.505	375.81
367.731	378.81
367.957	378.81
368.184	386.81
368.41	376.81
368.636	389.81
368.862	388.81
369.089	384.81
369.315	370.81
369.541	372.81
369.767	377.81
369.993	346.81
370.219	375.81
370.445	367.81
370.672	353.81
370.898	383.81
371.124	384.81
371.35	363.81
371.576	353.81
371.802	354.81
372.028	358.81
372.254	362.81
372.48	378.81
372.706	348.81
372.932	351.81
373.158	353.81
373.384	364.81
373.61	367.81
373.835	360.81
374.061	367.81
374.287	369.81
374.513	369.81
374.739	354.81
374.965	379.81
375.191	357.81
375.416	368.81
375.642	372.81
375.868	369.81
376.094	350.81
376.319	365.81
376.545	362.81
376.771	354.81
376.997	356.81
377.222	362.81
377.448	370.81
377.674	356.81
377.899	368.81
378.125	361.81
378.35	351.81
378.576	371.81
378.802	355.81
379.027	353.81
379.253	370.81
379.478	348.81
379.704	343.81
379.929	352.81
380.155	357.81
380.38	366.81
380.606	364.81
380.831	349.81
381.057	368.81
381.282	351.81
381.507	361.81
381.733	371.81
381.958	347.81
382.184	353.81
382.409	364.81
382.634	383.81
382.86	387.81
383.085	375.81
383.31	363.81
383.535	373.81
383.761	348.81
383.986	397.81
384.211	367.81
384.436	389.81
384.662	388.81
384.887	383.81
385.112	386.81
385.337	401.81
385.562	394.81
385.787	391.81
386.013	388.81
386.238	405.81
386.463	391.81
386.688	386.81
386.913	369.81
387.138	378.81
387.363	378.81
387.588	378.81
387.813	386.81
388.038	388.81
388.263	411.81
388.488	387.81
388.713	393.81
388.938	380.81
389.163	395.81
389.387	386.81
389.612	393.81
389.837	387.81
390.062	377.81
390.287	386.81
390.512	377.81
390.736	385.81
390.961	358.81
391.186	388.81
391.411	377.81
391.636	374.81
391.86	383.81
392.085	413.81
392.31	394.81
392.534	403.81
392.759	384.81
392.984	379.81
393.208	391.81
393.433	398.81
393.658	374.81
393.882	386.81
394.107	381.81
394.331	383.81
394.556	395.81
394.78	395.81
395.005	397.81
395.229	365.81
395.454	407.81
395.678	404.81
395.903	401.81
396.127	427.81
396.352	438.81
396.576	399.81
396.801	409.81
397.025	419.81
397.249	393.81
397.474	399.81
397.698	415.81
397.922	425.81
398.147	426.81
398.371	443.81
398.595	413.81
398.82	423.81
399.044	414.81
399.268	415.81
399.492	453.81
399.717	473.81
399.941	514.81
400.165	531.81
400.389	547.81
400.613	506.81
400.837	461.81
401.062	434.81
401.286	447.81
401.51	450.81
401.734	422.81
401.958	454.81
402.182	461.81
402.406	458.81
402.63	440.81
402.854	443.81
403.078	447.81
403.302	452.81
403.526	458.81
403.75	455.81
403.974	450.81
404.198	443.81
404.422	457.81
404.645	443.81
404.869	469.81
405.093	495.81
405.317	527.81
405.541	576.81
405.765	532.81
405.988	519.81
406.212	513.81
406.436	534.81
406.66	529.81
406.883	496.81
407.107	506.81
407.331	567.81
407.555	631.81
407.778	609.81
408.002	545.81
408.226	507.81
408.449	498.81
408.673	507.81
408.896	549.81
409.12	566.81
409.344	533.81
409.567	519.81
409.791	476.81
410.014	474.81
410.238	461.81
410.461	471.81
410.685	474.81
410.908	482.81
411.132	516.81
411.355	562.81
411.578	520.81
411.802	498.81
412.025	461.81
412.249	452.81
412.472	491.81
412.695	503.81
412.919	551.81
413.142	467.81
413.365	447.81
413.589	450.81
413.812	445.81
414.035	420.81
414.258	435.81
414.482	419.81
414.705	407.81
414.928	419.81
415.151	409.81
415.374	433.81
415.597	437.81
415.821	424.81
416.044	439.81
416.267	450.81
416.49	447.81
416.713	431.81
416.936	406.81
417.159	410.81
417.382	447.81
417.605	432.81
417.828	460.81
418.051	475.81
418.274	472.81
418.497	439.81
418.72	448.81
418.943	452.81
419.166	454.81
419.389	473.81
419.611	458.81
419.834	428.81
420.057	472.81
420.28	456.81
420.503	463.81
420.726	464.81
420.948	463.81
421.171	518.81
421.394	535.81
421.617	490.81
421.839	468.81
422.062	476.81
422.285	504.81
422.507	533.81
422.73	627.81
422.953	586.81
423.175	535.81
423.398	508.81
423.621	485.81
423.843	501.81
424.066	520.81
424.288	521.81
424.511	508.81
424.733	567.81
424.956	668.81
425.178	649.81
425.401	649.81
425.623	638.81
425.846	565.81
426.068	518.81
426.291	525.81
426.513	529.81
426.735	545.81
426.958	576.81
427.18	655.81
427.402	760.81
427.625	866.81
427.847	803.81
428.069	665.81
428.292	589.81
428.514	511.81
428.736	511.81
428.958	495.81
429.181	472.81
429.403	484.81
429.625	493.81
429.847	519.81
430.069	609.81
430.292	610.81
430.514	501.81
430.736	473.81
430.958	457.81
431.18	443.81
431.402	457.81
431.624	452.81
431.846	433.81
432.068	449.81
432.29	456.81
432.512	448.81
432.734	472.81
432.956	449.81
433.178	465.81
433.4	485.81
433.622	461.81
433.844	455.81
434.066	444.81
434.287	427.81
434.509	464.81
434.731	439.81
434.953	446.81
435.175	472.81
435.397	512.81
435.618	536.81
435.84	582.81
436.062	649.81
436.284	698.81
436.505	588.81
436.727	544.81
436.949	473.81
437.17	480.81
437.392	500.81
437.614	483.81
437.835	557.81
438.057	633.81
438.278	748.81
438.5	742.81
438.721	796.81
438.943	765.81
439.165	614.81
439.386	559.81
439.608	548.81
439.829	548.81
440.05	572.81
440.272	595.81
440.493	564.81
440.715	538.81
440.936	511.81
441.158	486.81
441.379	453.81
441.6	489.81
441.822	531.81
442.043	569.81
442.264	660.81
442.486	691.81
442.707	567.81
442.928	546.81
443.149	575.81
443.371	570.81
443.592	606.81
443.813	688.81
444.034	757.81
444.255	625.81
444.476	551.81
444.698	497.81
444.919	500.81
445.14	609.81
445.361	563.81
445.582	550.81
445.803	633.81
446.024	742.81
446.245	754.81
446.466	673.81
446.687	583.81
446.908	547.81
447.129	509.81
447.35	487.81
447.571	489.81
447.792	468.81
448.013	490.81
448.234	504.81
448.455	532.81
448.675	693.81
448.896	771.81
449.117	651.81
449.338	627.81
449.559	744.81
449.779	839.81
450	668.81
450.221	555.81
450.442	487.81
450.662	485.81
450.883	507.81
451.104	525.81
451.324	502.81
451.545	479.81
451.766	461.81
451.986	453.81
452.207	438.81
452.428	457.81
452.648	424.81
452.869	445.81
453.089	426.81
453.31	451.81
453.53	454.81
453.751	421.81
453.971	449.81
454.192	454.81
454.412	471.81
454.633	434.81
454.853	438.81
455.073	423.81
455.294	440.81
455.514	533.81
455.734	527.81
455.955	451.81
456.175	421.81
456.395	393.81
456.616	427.81
456.836	414.81
457.056	397.81
457.276	385.81
457.497	396.81
457.717	405.81
457.937	418.81
458.157	421.81
458.377	416.81
458.598	442.81
458.818	530.81
459.038	600.81
459.258	584.81
459.478	515.81
459.698	479.81
459.918	429.81
460.138	437.81
460.358	435.81
460.578	438.81
460.798	446.81
461.018	444.81
461.238	436.81
461.458	432.81
461.678	423.81
461.898	422.81
462.118	445.81
462.338	452.81
462.558	452.81
462.777	443.81
462.997	454.81
463.217	437.81
463.437	459.81
463.657	468.81
463.876	435.81
464.096	464.81
464.316	464.81
464.536	485.81
464.755	477.81
464.975	487.81
465.195	541.81
465.414	613.81
465.634	561.81
465.854	491.81
466.073	472.81
466.293	479.81
466.512	441.81
466.732	437.81
466.951	425.81
467.171	442.81
467.391	445.81
467.61	472.81
467.829	459.81
468.049	436.81
468.268	455.81
468.488	437.81
468.707	440.81
468.927	431.81
469.146	417.81
469.365	435.81
469.585	410.81
469.804	432.81
470.023	455.81
470.243	460.81
470.462	451.81
470.681	460.81
470.901	476.81
471.12	432.81
471.339	445.81
471.558	454.81
471.777	449.81
471.997	433.81
472.216	438.81
472.435	476.81
472.654	462.81
472.873	450.81
473.092	445.81
473.311	427.81
473.53	426.81
473.749	470.81
473.968	488.81
474.187	621.81
474.406	643.81
474.625	517.81
474.844	467.81
475.063	440.81
475.282	453.81
475.501	426.81
475.72	456.81
475.939	465.81
476.158	442.81
476.377	468.81
476.596	449.81
476.814	475.81
477.033	491.81
477.252	467.81
477.471	454.81
477.69	467.81
477.908	475.81
478.127	477.81
478.346	465.81
478.564	491.81
478.783	462.81
479.002	483.81
479.22	499.81
479.439	508.81
479.658	542.81
479.876	525.81
480.095	547.81
480.313	543.81
480.532	548.81
480.751	554.81
480.969	545.81
481.188	631.81
481.406	661.81
481.624	592.81
481.843	551.81
482.061	540.81
482.28	536.81
482.498	555.81
482.717	539.81
482.935	514.81
483.153	516.81
483.372	557.81
483.59	552.81
483.808	539.81
484.027	536.81
484.245	522.81
484.463	536.81
484.681	548.81
484.9	516.81
485.118	540.81
485.336	525.81
485.554	522.81
485.772	525.81
485.99	546.81
486.209	560.81
486.427	570.81
486.645	574.81
486.863	564.81
487.081	564.81
487.299	583.81
487.517	577.81
487.735	559.81
487.953	557.81
488.171	573.81
488.389	561.81
488.607	563.81
488.825	581.81
489.043	587.81
489.261	575.81
489.479	583.81
489.696	579.81
489.914	594.81
490.132	553.81
490.35	598.81
490.568	633.81
490.786	622.81
491.003	629.81
491.221	640.81
491.439	618.81
491.657	643.81
491.874	647.81
492.092	659.81
492.31	675.81
492.527	683.81
492.745	678.81
492.963	680.81
493.18	675.81
493.398	691.81
493.615	682.81
493.833	669.81
494.05	664.81
494.268	691.81
494.485	677.81
494.703	708.81
494.92	675.81
495.138	675.81
495.355	700.81
495.573	687.81
495.79	700.81
496.008	647.81
496.225	676.81
496.442	687.81
496.66	680.81
496.877	689.81
497.094	671.81
497.312	675.81
497.529	677.81
497.746	707.81
497.963	724.81
498.181	727.81
498.398	715.81
498.615	747.81
498.832	713.81
499.049	705.81
499.267	721.81
499.484	744.81
499.701	751.81
499.918	773.81
500.135	815.81
500.352	828.81
500.569	832.81
500.786	838.81
501.003	846.81
501.22	808.81
501.437	802.81
501.654	794.81
501.871	824.81
502.088	793.81
502.305	772.81
502.522	724.81
502.739	714.81
502.956	696.81
503.172	699.81
503.389	685.81
503.606	698.81
503.823	693.81
504.04	673.81
504.256	676.81
504.473	675.81
504.69	660.81
504.907	656.81
505.123	664.81
505.34	664.81
505.557	648.81
505.773	650.81
505.99	674.81
506.207	656.81
506.423	650.81
506.64	639.81
506.856	664.81
507.073	649.81
507.289	630.81
507.506	640.81
507.722	632.81
507.939	689.81
508.155	669.81
508.372	674.81
508.588	635.81
508.805	626.81
509.021	648.81
509.238	645.81
509.454	690.81
509.67	662.81
509.887	642.81
510.103	625.81
510.319	666.81
510.536	745.81
510.752	1355.81
510.968	1092.81
511.184	681.81
511.401	629.81
511.617	642.81
511.833	635.81
512.049	616.81
512.265	599.81
512.481	601.81
512.698	602.81
512.914	601.81
513.13	588.81
513.346	624.81
513.562	605.81
513.778	616.81
513.994	639.81
514.21	628.81
514.426	693.81
514.642	734.81
514.858	728.81
515.074	795.81
515.29	977.81
515.506	1535.81
515.721	1198.81
515.937	775.81
516.153	710.81
516.369	676.81
516.585	657.81
516.801	633.81
517.016	629.81
517.232	637.81
517.448	626.81
517.664	610.81
517.879	605.81
518.095	588.81
518.311	595.81
518.527	595.81
518.742	587.81
518.958	598.81
519.173	605.81
519.389	585.81
519.605	611.81
519.82	597.81
520.036	632.81
520.251	653.81
520.467	685.81
520.682	709.81
520.898	693.81
521.113	720.81
521.329	778.81
521.544	937.81
521.76	1187.81
521.975	2008.81
522.19	1972.81
522.406	1059.81
522.621	743.81
522.836	633.81
523.052	620.81
523.267	603.81
523.482	571.81
523.698	564.81
523.913	547.81
524.128	550.81
524.343	536.81
524.559	548.81
524.774	525.81
524.989	532.81
525.204	504.81
525.419	543.81
525.634	534.81
525.849	489.81
526.064	521.81
526.28	507.81
526.495	491.81
526.71	467.81
526.925	480.81
527.14	462.81
527.355	467.81
527.57	472.81
527.785	449.81
527.999	484.81
528.214	480.81
528.429	479.81
528.644	483.81
528.859	487.81
529.074	495.81
529.289	514.81
529.503	603.81
529.718	580.81
529.933	539.81
530.148	497.81
530.363	481.81
530.577	471.81
530.792	480.81
531.007	475.81
531.221	469.81
531.436	449.81
531.651	464.81
531.865	467.81
532.08	452.81
532.295	461.81
532.509	455.81
532.724	443.81
532.938	458.81
533.153	458.81
533.367	426.81
533.582	466.81
533.796	452.81
534.011	451.81
534.225	431.81
534.44	461.81
534.654	454.81
534.868	456.81
535.083	458.81
535.297	442.81
535.511	469.81
535.726	483.81
535.94	445.81
536.154	452.81
536.369	447.81
536.583	436.81
536.797	452.81
537.011	440.81
537.225	435.81
537.44	433.81
537.654	433.81
537.868	421.81
538.082	425.81
538.296	455.81
538.51	458.81
538.724	441.81
538.938	445.81
539.153	417.81
539.367	443.81
539.581	446.81
539.795	456.81
540.009	425.81
540.222	431.81
540.436	431.81
540.65	430.81
540.864	438.81
541.078	471.81
541.292	469.81
541.506	445.81
541.72	403.81
541.934	438.81
542.147	431.81
542.361	419.81
542.575	444.81
542.789	410.81
543.002	426.81
543.216	422.81
543.43	444.81
543.644	428.81
543.857	429.81
544.071	442.81
544.285	436.81
544.498	454.81
544.712	433.81
544.925	423.81
545.139	432.81
545.352	400.81
545.566	420.81
545.779	413.81
545.993	421.81
546.206	413.81
546.42	437.81
546.633	400.81
546.847	425.81
547.06	417.81
547.274	397.81
547.487	407.81
547.7	394.81
547.914	398.81
548.127	383.81
548.34	415.81
548.554	410.81
548.767	409.81
548.98	413.81
549.193	416.81
549.407	393.81
549.62	408.81
549.833	403.81
550.046	402.81
550.259	402.81
550.473	393.81
550.686	406.81
550.899	397.81
551.112	381.81
551.325	384.81
551.538	398.81
551.751	369.81
551.964	391.81
552.177	389.81
552.39	396.81
552.603	408.81
552.816	396.81
553.029	398.81
553.242	412.81
553.455	424.81
553.667	431.81
553.88	447.81
554.093	409.81
554.306	413.81
554.519	410.81
554.732	427.81
554.944	405.81
555.157	393.81
555.37	369.81
555.583	391.81
555.795	396.81
556.008	371.81
556.221	384.81
556.433	398.81
556.646	371.81
556.859	377.81
557.071	394.81
557.284	379.81
557.496	380.81
557.709	363.81
557.921	379.81
558.134	365.81
558.346	375.81
558.559	359.81
558.771	371.81
558.984	343.81
559.196	366.81
559.409	359.81
559.621	355.81
559.833	353.81
560.046	354.81
560.258	359.81
560.47	357.81
560.683	346.81
560.895	346.81
561.107	377.81
561.32	348.81
561.532	379.81
561.744	381.81
561.956	368.81
562.168	372.81
562.381	353.81
562.593	364.81
562.805	356.81
563.017	368.81
563.229	369.81
563.441	362.81
563.653	343.81
563.865	364.81
564.077	360.81
564.289	385.81
564.501	368.81
564.713	355.81
564.925	383.81
565.137	384.81
565.349	392.81
565.561	399.81
565.773	377.81
565.985	369.81
566.197	384.81
566.408	393.81
566.62	408.81
566.832	407.81
567.044	410.81
567.255	422.81
567.467	404.81
567.679	401.81
567.891	413.81
568.102	413.81
568.314	407.81
568.526	368.81
568.737	403.81
568.949	369.81
569.161	372.81
569.372	361.81
569.584	371.81
569.795	367.81
570.007	356.81
570.218	431.81
570.43	383.81
570.641	344.81
570.853	350.81
571.064	344.81
571.276	348.81
571.487	347.81
571.698	336.81
571.91	348.81
572.121	342.81
572.333	317.81
572.544	339.81
572.755	336.81
572.966	331.81
573.178	308.81
573.389	328.81
573.6	328.81
573.811	296.81
574.023	331.81
574.234	298.81
574.445	312.81
574.656	319.81
574.867	322.81
575.078	314.81
575.289	320.81
575.501	310.81
575.712	306.81
575.923	297.81
576.134	319.81
576.345	305.81
576.556	312.81
576.767	296.81
576.978	306.81
577.188	311.81
577.399	303.81
577.61	316.81
577.821	308.81
578.032	315.81
578.243	360.81
578.454	630.81
578.665	440.81
578.875	328.81
579.086	312.81
579.297	301.81
579.508	303.81
579.718	314.81
579.929	308.81
580.14	298.81
580.35	299.81
580.561	291.81
580.772	285.81
580.982	289.81
581.193	301.81
581.403	285.81
581.614	303.81
581.825	296.81
582.035	295.81
582.246	264.81
582.456	297.81
582.667	270.81
582.877	275.81
583.087	278.81
583.298	303.81
583.508	288.81
583.719	291.81
583.929	264.81
584.139	286.81
584.35	288.81
584.56	282.81
584.77	277.81
584.981	268.81
585.191	278.81
585.401	287.81
585.611	268.81
585.821	278.81
586.032	277.81
586.242	264.81
586.452	285.81
586.662	267.81
586.872	278.81
587.082	266.81
587.292	265.81
587.502	261.81
587.713	298.81
587.923	291.81
588.133	265.81
588.343	266.81
588.553	268.81
588.762	256.81
588.972	283.81
589.182	251.81
589.392	269.81
589.602	282.81
589.812	267.81
590.022	271.81
590.232	273.81
590.441	275.81
590.651	273.81
590.861	295.81
591.071	276.81
591.281	280.81
591.49	253.81
591.7	274.81
591.91	276.81
592.119	288.81
592.329	274.81
592.539	280.81
592.748	288.81
592.958	270.81
593.167	281.81
593.377	282.81
593.587	276.81
593.796	275.81
594.006	283.81
594.215	277.81
594.424	290.81
594.634	260.81
594.843	288.81
595.053	268.81
595.262	260.81
595.472	289.81
595.681	288.81
595.89	268.81
596.1	277.81
596.309	277.81
596.518	260.81
596.727	273.81
596.937	257.81
597.146	245.81
597.355	244.81
597.564	271.81
597.774	247.81
597.983	267.81
598.192	264.81
598.401	253.81
598.61	252.81
598.819	240.81
599.028	256.81
599.237	246.81
599.446	253.81
599.655	250.81
599.864	240.81
600.073	248.81
600.282	261.81
600.491	247.81
600.7	277.81
600.909	267.81
601.118	239.81
601.327	225.81
601.536	240.81
601.745	259.81
601.953	210.81
602.162	248.81
602.371	234.81
602.58	247.81
602.789	248.81
602.997	240.81
603.206	242.81
603.415	232.81
603.623	226.81
603.832	233.81
604.041	234.81
604.249	236.81
604.458	228.81
604.666	216.81
604.875	233.81
605.084	242.81
605.292	233.81
605.501	231.81
605.709	235.81
605.918	232.81
606.126	207.81
606.334	220.81
606.543	239.81
606.751	234.81
606.96	222.81
607.168	228.81
607.376	219.81
607.585	241.81
607.793	226.81
608.001	227.81
608.21	224.81
608.418	240.81
608.626	241.81
608.834	234.81
609.043	224.81
609.251	223.81
609.459	217.81
609.667	203.81
609.875	211.81
610.083	220.81
610.291	240.81
610.499	228.81
610.707	204.81
610.916	230.81
611.124	221.81
611.332	228.81
611.54	231.81
611.748	255.81
611.955	222.81
612.163	225.81
612.371	234.81
612.579	238.81
612.787	217.81
612.995	223.81
613.203	214.81
613.411	213.81
613.618	234.81
613.826	230.81
614.034	217.81
614.242	215.81
614.449	212.81
614.657	230.81
614.865	220.81
615.072	235.81
615.28	210.81
615.488	234.81
615.695	220.81
615.903	212.81
616.111	205.81
616.318	223.81
616.526	215.81
616.733	212.81
616.941	211.81
617.148	224.81
617.356	225.81
617.563	202.81
617.771	215.81
617.978	206.81
618.185	217.81
618.393	230.81
618.6	229.81
618.807	216.81
619.015	215.81
619.222	235.81
619.429	211.81
619.637	230.81
619.844	197.81
620.051	222.81
620.258	207.81
620.466	223.81
620.673	220.81
620.88	234.81
621.087	209.81
621.294	223.81
621.501	224.81
621.708	219.81
621.915	221.81
622.122	199.81
622.329	212.81
622.536	219.81
622.743	206.81
622.95	216.81
623.157	212.81
623.364	203.81
623.571	207.81
623.778	226.81
623.985	208.81
624.192	193.81
624.399	222.81
624.606	209.81
624.812	225.81
625.019	203.81
625.226	196.81
625.433	206.81
625.639	193.81
625.846	207.81
626.053	201.81
626.259	200.81
626.466	203.81
626.673	198.81
626.879	195.81
627.086	204.81
627.293	204.81
627.499	202.81
627.706	201.81
627.912	211.81
628.119	193.81
628.325	197.81
628.532	191.81
628.738	205.81
628.945	211.81
629.151	197.81
629.357	197.81
629.564	195.81
629.77	206.81
629.976	203.81
630.183	191.81
630.389	184.81
630.595	180.81
630.802	177.81
631.008	197.81
631.214	179.81
631.42	188.81
631.627	178.81
631.833	188.81
632.039	170.81
632.245	177.81
632.451	176.81
632.657	180.81
632.863	165.81
633.069	158.81
633.275	199.81
633.481	172.81
633.688	175.81
633.893	180.81
634.099	172.81
634.305	164.81
634.511	183.81
634.717	161.81
634.923	172.81
635.129	168.81
635.335	173.81
635.541	176.81
635.747	165.81
635.952	178.81
636.158	197.81
636.364	175.81
636.57	194.81
636.775	179.81
636.981	179.81
637.187	192.81
637.392	172.81
637.598	160.81
637.804	156.81
638.009	165.81
638.215	173.81
638.421	161.81
638.626	179.81
638.832	179.81
639.037	156.81
639.243	153.81
639.448	139.81
639.654	169.81
639.859	162.81
640.065	164.81
640.27	170.81
640.475	159.81
640.681	166.81
640.886	167.81
641.091	163.81
641.297	164.81
641.502	165.81
641.707	172.81
641.913	176.81
642.118	170.81
642.323	175.81
642.528	183.81
642.733	169.81
642.939	170.81
643.144	173.81
643.349	161.81
643.554	135.81
643.759	144.81
643.964	168.81
644.169	162.81
644.374	164.81
644.579	158.81
644.784	160.81
644.989	169.81
645.194	170.81
645.399	170.81
645.604	159.81
645.809	142.81
646.014	154.81
646.219	156.81
646.423	163.81
646.628	147.81
646.833	170.81
647.038	150.81
647.243	167.81
647.447	169.81
647.652	155.81
647.857	171.81
648.062	169.81
648.266	161.81
648.471	140.81
648.676	158.81
648.88	162.81
649.085	140.81
649.289	168.81
649.494	173.81
649.698	182.81
649.903	176.81
650.107	159.81
650.312	155.81
650.516	154.81
650.721	160.81
650.925	162.81
651.13	154.81
651.334	158.81
651.539	141.81
651.743	125.81
651.947	138.81
652.152	133.81
652.356	139.81
652.56	145.81
652.764	148.81
652.969	138.81
653.173	145.81
653.377	140.81
653.581	133.81
653.785	138.81
653.99	122.81
654.194	141.81
654.398	131.81
654.602	131.81
654.806	135.81
655.01	129.81
655.214	137.81
655.418	133.81
655.622	129.81
655.826	125.81
656.03	130.81
656.234	124.81
656.438	119.81
656.642	125.81
656.846	125.81
657.049	113.81
657.253	115.81
657.457	114.81
657.661	108.81
657.865	137.81
658.068	111.81
658.272	113.81
658.476	97.81
658.68	97.81
658.883	93.81
659.087	95.81
659.291	119.81
659.494	105.81
659.698	92.81
659.901	88.81
660.105	103.81
660.309	91.81
660.512	100.81
660.716	90.81
660.919	95.81
661.123	111.81
661.326	87.81
661.53	91.81
661.733	95.81
661.936	103.81
662.14	80.81
662.343	84.81
662.546	82.81
662.75	75.81
662.953	88.81
663.156	80.81
663.36	85.81
663.563	92.81
663.766	92.81
663.969	84.81
664.173	84.81
664.376	79.81
664.579	84.81
664.782	87.81
664.985	90.81
665.188	91.81
665.391	84.81
665.594	83.81
665.797	76.81
666	89.81
666.203	77.81
666.406	100.81
666.609	89.81
666.812	71.81
667.015	76.81
667.218	76.81
667.421	84.81
667.624	82.81
667.827	87.81
668.03	103.81
668.232	86.81
668.435	92.81
668.638	70.81
668.841	73.81
669.043	90.81
669.246	93.81
669.449	82.81
669.651	88.81
669.854	95.81
670.057	87.81
670.259	78.81
670.462	71.81
670.665	98.81
670.867	91.81
671.07	92.81
671.272	88.81
671.475	90.81
671.677	83.81
671.88	93.81
672.082	80.81
672.284	75.81
672.487	90.81
672.689	86.81
672.892	81.81
