Data from 1982.PennyLincolnUp.Lamp.En5.5.200Scan.071819.P1_HRD10591_16-47-45-963.txt Node
Date: Thu Jul 18 16:47:45 EDT 2019
User: cochatt
Spectrometer: HR+D1059
Trigger mode: 1
Integration Time (sec): 1.000000E-1
Scans to average: 1
Electric dark correction enabled: true
Nonlinearity correction enabled: false
Boxcar width: 0
XAxis mode: Wavelengths
Number of Pixels in Spectrum: 2048
>>>>>Begin Spectral Data<<<<<
223.165	-15.06
223.4	-15.06
223.635	-15.06
223.869	-15.06
224.104	-20.06
224.338	-20.06
224.573	-19.06
224.808	-14.06
225.042	-3.06
225.277	2.94
225.511	-12.06
225.746	6.94
225.98	10.94
226.215	17.94
226.449	14.94
226.683	16.94
226.918	25.94
227.152	21.94
227.387	34.94
227.621	46.94
227.856	44.94
228.09	51.94
228.324	44.94
228.559	77.94
228.793	60.94
229.027	87.94
229.262	78.94
229.496	119.94
229.73	124.94
229.964	133.94
230.199	100.94
230.433	86.94
230.667	96.94
230.901	105.94
231.136	97.94
231.37	93.94
231.604	95.94
231.838	107.94
232.072	98.94
232.306	103.94
232.541	106.94
232.775	94.94
233.009	107.94
233.243	108.94
233.477	112.94
233.711	94.94
233.945	105.94
234.179	107.94
234.413	116.94
234.647	110.94
234.881	117.94
235.115	98.94
235.349	117.94
235.583	96.94
235.817	103.94
236.051	118.94
236.285	115.94
236.519	105.94
236.753	116.94
236.987	136.94
237.221	153.94
237.455	191.94
237.689	164.94
237.922	114.94
238.156	128.94
238.39	103.94
238.624	107.94
238.858	100.94
239.091	118.94
239.325	108.94
239.559	118.94
239.793	112.94
240.027	124.94
240.26	120.94
240.494	129.94
240.728	140.94
240.961	124.94
241.195	135.94
241.429	124.94
241.662	130.94
241.896	114.94
242.13	107.94
242.363	114.94
242.597	124.94
242.83	112.94
243.064	125.94
243.298	125.94
243.531	126.94
243.765	113.94
243.998	123.94
244.232	115.94
244.465	107.94
244.699	120.94
244.932	126.94
245.166	123.94
245.399	115.94
245.633	117.94
245.866	118.94
246.099	123.94
246.333	128.94
246.566	130.94
246.8	136.94
247.033	148.94
247.266	136.94
247.5	142.94
247.733	137.94
247.966	159.94
248.2	152.94
248.433	152.94
248.666	138.94
248.899	146.94
249.133	167.94
249.366	166.94
249.599	157.94
249.832	148.94
250.066	151.94
250.299	169.94
250.532	162.94
250.765	159.94
250.998	185.94
251.231	180.94
251.465	180.94
251.698	176.94
251.931	170.94
252.164	178.94
252.397	146.94
252.63	159.94
252.863	168.94
253.096	185.94
253.329	180.94
253.562	184.94
253.795	185.94
254.028	173.94
254.261	184.94
254.494	179.94
254.727	211.94
254.96	226.94
255.193	203.94
255.426	192.94
255.659	191.94
255.892	195.94
256.124	205.94
256.357	191.94
256.59	192.94
256.823	163.94
257.056	187.94
257.289	165.94
257.521	157.94
257.754	170.94
257.987	168.94
258.22	193.94
258.452	178.94
258.685	169.94
258.918	166.94
259.151	173.94
259.383	156.94
259.616	176.94
259.849	177.94
260.081	186.94
260.314	200.94
260.547	221.94
260.779	185.94
261.012	185.94
261.244	194.94
261.477	205.94
261.71	185.94
261.942	174.94
262.175	170.94
262.407	195.94
262.64	194.94
262.872	189.94
263.105	166.94
263.337	178.94
263.57	184.94
263.802	172.94
264.035	171.94
264.267	189.94
264.499	188.94
264.732	167.94
264.964	168.94
265.197	169.94
265.429	179.94
265.661	185.94
265.894	180.94
266.126	176.94
266.358	181.94
266.591	204.94
266.823	178.94
267.055	185.94
267.287	181.94
267.52	197.94
267.752	169.94
267.984	179.94
268.216	187.94
268.448	180.94
268.681	198.94
268.913	203.94
269.145	208.94
269.377	224.94
269.609	234.94
269.841	221.94
270.073	227.94
270.306	234.94
270.538	257.94
270.77	231.94
271.002	260.94
271.234	234.94
271.466	258.94
271.698	262.94
271.93	268.94
272.162	259.94
272.394	260.94
272.626	245.94
272.858	228.94
273.09	227.94
273.322	226.94
273.553	207.94
273.785	214.94
274.017	219.94
274.249	226.94
274.481	212.94
274.713	196.94
274.945	213.94
275.176	212.94
275.408	204.94
275.64	204.94
275.872	224.94
276.104	220.94
276.335	205.94
276.567	196.94
276.799	257.94
277.031	251.94
277.262	260.94
277.494	262.94
277.726	257.94
277.957	215.94
278.189	216.94
278.421	212.94
278.652	221.94
278.884	207.94
279.115	223.94
279.347	227.94
279.579	217.94
279.81	210.94
280.042	195.94
280.273	211.94
280.505	199.94
280.736	209.94
280.968	209.94
281.199	216.94
281.431	208.94
281.662	213.94
281.894	215.94
282.125	225.94
282.356	228.94
282.588	234.94
282.819	236.94
283.051	229.94
283.282	206.94
283.513	206.94
283.745	225.94
283.976	233.94
284.207	227.94
284.439	221.94
284.67	201.94
284.901	215.94
285.132	201.94
285.364	214.94
285.595	219.94
285.826	223.94
286.057	224.94
286.288	216.94
286.52	226.94
286.751	209.94
286.982	242.94
287.213	223.94
287.444	211.94
287.675	230.94
287.906	239.94
288.138	208.94
288.369	236.94
288.6	241.94
288.831	241.94
289.062	233.94
289.293	232.94
289.524	221.94
289.755	232.94
289.986	228.94
290.217	237.94
290.448	225.94
290.679	208.94
290.91	249.94
291.141	212.94
291.371	215.94
291.602	219.94
291.833	232.94
292.064	212.94
292.295	223.94
292.526	219.94
292.757	221.94
292.987	218.94
293.218	213.94
293.449	225.94
293.68	222.94
293.91	221.94
294.141	214.94
294.372	212.94
294.603	227.94
294.833	227.94
295.064	234.94
295.295	216.94
295.525	228.94
295.756	233.94
295.987	229.94
296.217	251.94
296.448	260.94
296.679	224.94
296.909	228.94
297.14	218.94
297.37	219.94
297.601	224.94
297.831	228.94
298.062	231.94
298.292	228.94
298.523	226.94
298.753	228.94
298.984	235.94
299.214	237.94
299.445	226.94
299.675	240.94
299.905	222.94
300.136	249.94
300.366	241.94
300.597	236.94
300.827	255.94
301.057	244.94
301.288	248.94
301.518	249.94
301.748	253.94
301.979	261.94
302.209	252.94
302.439	256.94
302.669	243.94
302.9	247.94
303.13	238.94
303.36	246.94
303.59	257.94
303.82	248.94
304.051	245.94
304.281	261.94
304.511	253.94
304.741	244.94
304.971	259.94
305.201	251.94
305.431	258.94
305.661	243.94
305.891	248.94
306.121	253.94
306.352	261.94
306.582	263.94
306.812	270.94
307.042	250.94
307.272	264.94
307.502	257.94
307.731	271.94
307.961	262.94
308.191	272.94
308.421	274.94
308.651	257.94
308.881	281.94
309.111	264.94
309.341	255.94
309.571	277.94
309.8	303.94
310.03	306.94
310.26	288.94
310.49	281.94
310.72	292.94
310.949	315.94
311.179	317.94
311.409	300.94
311.639	284.94
311.868	302.94
312.098	300.94
312.328	297.94
312.557	333.94
312.787	306.94
313.017	306.94
313.246	305.94
313.476	308.94
313.706	305.94
313.935	304.94
314.165	317.94
314.394	312.94
314.624	313.94
314.853	303.94
315.083	308.94
315.312	293.94
315.542	288.94
315.771	304.94
316.001	288.94
316.23	281.94
316.46	296.94
316.689	302.94
316.919	293.94
317.148	299.94
317.377	294.94
317.607	306.94
317.836	296.94
318.065	290.94
318.295	278.94
318.524	273.94
318.753	293.94
318.983	308.94
319.212	314.94
319.441	307.94
319.67	310.94
319.9	296.94
320.129	285.94
320.358	293.94
320.587	304.94
320.816	298.94
321.046	328.94
321.275	327.94
321.504	338.94
321.733	336.94
321.962	339.94
322.191	345.94
322.42	350.94
322.649	360.94
322.878	368.94
323.108	392.94
323.337	417.94
323.566	400.94
323.795	454.94
324.024	473.94
324.253	610.94
324.482	926.94
324.71	1428.94
324.939	1840.94
325.168	1496.94
325.397	765.94
325.626	529.94
325.855	457.94
326.084	426.94
326.313	393.94
326.542	421.94
326.77	487.94
326.999	566.94
327.228	816.94
327.457	1160.94
327.686	1335.94
327.914	894.94
328.143	584.94
328.372	518.94
328.6	490.94
328.829	460.94
329.058	474.94
329.287	491.94
329.515	443.94
329.744	408.94
329.972	426.94
330.201	435.94
330.43	458.94
330.658	469.94
330.887	508.94
331.115	462.94
331.344	394.94
331.572	379.94
331.801	379.94
332.03	363.94
332.258	355.94
332.486	353.94
332.715	354.94
332.943	338.94
333.172	333.94
333.4	348.94
333.629	369.94
333.857	370.94
334.085	386.94
334.314	389.94
334.542	401.94
334.771	406.94
334.999	382.94
335.227	362.94
335.455	359.94
335.684	336.94
335.912	329.94
336.14	338.94
336.369	350.94
336.597	351.94
336.825	344.94
337.053	343.94
337.281	329.94
337.51	342.94
337.738	326.94
337.966	342.94
338.194	335.94
338.422	314.94
338.65	336.94
338.878	321.94
339.106	312.94
339.334	326.94
339.562	313.94
339.79	314.94
340.018	318.94
340.246	315.94
340.474	334.94
340.702	329.94
340.93	337.94
341.158	324.94
341.386	323.94
341.614	338.94
341.842	334.94
342.07	318.94
342.298	313.94
342.526	310.94
342.754	298.94
342.981	297.94
343.209	304.94
343.437	316.94
343.665	301.94
343.893	308.94
344.12	330.94
344.348	300.94
344.576	329.94
344.804	320.94
345.031	340.94
345.259	341.94
345.487	323.94
345.714	323.94
345.942	298.94
346.17	308.94
346.397	305.94
346.625	308.94
346.853	314.94
347.08	321.94
347.308	317.94
347.535	329.94
347.763	326.94
347.99	322.94
348.218	329.94
348.445	344.94
348.673	312.94
348.9	311.94
349.128	308.94
349.355	291.94
349.583	297.94
349.81	306.94
350.037	289.94
350.265	306.94
350.492	298.94
350.72	314.94
350.947	299.94
351.174	323.94
351.402	336.94
351.629	312.94
351.856	305.94
352.083	322.94
352.311	345.94
352.538	332.94
352.765	330.94
352.992	323.94
353.22	316.94
353.447	304.94
353.674	301.94
353.901	281.94
354.128	293.94
354.355	292.94
354.583	283.94
354.81	280.94
355.037	286.94
355.264	269.94
355.491	285.94
355.718	305.94
355.945	284.94
356.172	281.94
356.399	290.94
356.626	289.94
356.853	279.94
357.08	289.94
357.307	261.94
357.534	284.94
357.761	269.94
357.988	291.94
358.215	295.94
358.441	272.94
358.668	270.94
358.895	276.94
359.122	273.94
359.349	286.94
359.576	309.94
359.802	350.94
360.029	330.94
360.256	345.94
360.483	324.94
360.709	304.94
360.936	330.94
361.163	308.94
361.39	300.94
361.616	310.94
361.843	309.94
362.07	306.94
362.296	299.94
362.523	299.94
362.749	285.94
362.976	313.94
363.203	306.94
363.429	292.94
363.656	290.94
363.882	293.94
364.109	283.94
364.335	290.94
364.562	293.94
364.788	291.94
365.015	266.94
365.241	281.94
365.468	298.94
365.694	267.94
365.92	286.94
366.147	278.94
366.373	288.94
366.599	273.94
366.826	278.94
367.052	294.94
367.278	290.94
367.505	285.94
367.731	296.94
367.957	278.94
368.184	281.94
368.41	292.94
368.636	304.94
368.862	299.94
369.089	289.94
369.315	274.94
369.541	297.94
369.767	279.94
369.993	290.94
370.219	268.94
370.445	289.94
370.672	279.94
370.898	280.94
371.124	259.94
371.35	265.94
371.576	269.94
371.802	275.94
372.028	285.94
372.254	290.94
372.48	271.94
372.706	262.94
372.932	282.94
373.158	270.94
373.384	276.94
373.61	274.94
373.835	263.94
374.061	273.94
374.287	291.94
374.513	281.94
374.739	290.94
374.965	268.94
375.191	276.94
375.416	278.94
375.642	285.94
375.868	279.94
376.094	285.94
376.319	278.94
376.545	274.94
376.771	293.94
376.997	273.94
377.222	260.94
377.448	268.94
377.674	261.94
377.899	269.94
378.125	284.94
378.35	266.94
378.576	281.94
378.802	274.94
379.027	263.94
379.253	275.94
379.478	261.94
379.704	276.94
379.929	262.94
380.155	256.94
380.38	272.94
380.606	282.94
380.831	285.94
381.057	288.94
381.282	262.94
381.507	280.94
381.733	306.94
381.958	283.94
382.184	267.94
382.409	275.94
382.634	280.94
382.86	288.94
383.085	277.94
383.31	277.94
383.535	264.94
383.761	280.94
383.986	273.94
384.211	284.94
384.436	294.94
384.662	286.94
384.887	279.94
385.112	281.94
385.337	281.94
385.562	275.94
385.787	288.94
386.013	280.94
386.238	292.94
386.463	285.94
386.688	284.94
386.913	278.94
387.138	270.94
387.363	278.94
387.588	271.94
387.813	288.94
388.038	293.94
388.263	276.94
388.488	286.94
388.713	300.94
388.938	267.94
389.163	288.94
389.387	283.94
389.612	260.94
389.837	278.94
390.062	270.94
390.287	268.94
390.512	280.94
390.736	269.94
390.961	288.94
391.186	278.94
391.411	299.94
391.636	308.94
391.86	304.94
392.085	319.94
392.31	316.94
392.534	270.94
392.759	287.94
392.984	286.94
393.208	298.94
393.433	285.94
393.658	285.94
393.882	286.94
394.107	300.94
394.331	273.94
394.556	267.94
394.78	274.94
395.005	308.94
395.229	258.94
395.454	310.94
395.678	308.94
395.903	293.94
396.127	300.94
396.352	306.94
396.576	281.94
396.801	295.94
397.025	291.94
397.249	294.94
397.474	296.94
397.698	308.94
397.922	322.94
398.147	333.94
398.371	318.94
398.595	314.94
398.82	314.94
399.044	313.94
399.268	306.94
399.492	338.94
399.717	331.94
399.941	357.94
400.165	365.94
400.389	367.94
400.613	356.94
400.837	330.94
401.062	328.94
401.286	307.94
401.51	327.94
401.734	316.94
401.958	308.94
402.182	313.94
402.406	316.94
402.63	321.94
402.854	329.94
403.078	321.94
403.302	321.94
403.526	338.94
403.75	339.94
403.974	310.94
404.198	323.94
404.422	334.94
404.645	325.94
404.869	338.94
405.093	362.94
405.317	396.94
405.541	380.94
405.765	376.94
405.988	352.94
406.212	355.94
406.436	368.94
406.66	380.94
406.883	373.94
407.107	364.94
407.331	408.94
407.555	434.94
407.778	428.94
408.002	396.94
408.226	366.94
408.449	367.94
408.673	354.94
408.896	386.94
409.12	396.94
409.344	388.94
409.567	332.94
409.791	322.94
410.014	333.94
410.238	325.94
410.461	333.94
410.685	331.94
410.908	353.94
411.132	378.94
411.355	378.94
411.578	384.94
411.802	348.94
412.025	325.94
412.249	333.94
412.472	354.94
412.695	342.94
412.919	352.94
413.142	326.94
413.365	316.94
413.589	328.94
413.812	302.94
414.035	321.94
414.258	321.94
414.482	310.94
414.705	290.94
414.928	297.94
415.151	293.94
415.374	305.94
415.597	308.94
415.821	305.94
416.044	300.94
416.267	315.94
416.49	296.94
416.713	300.94
416.936	309.94
417.159	297.94
417.382	301.94
417.605	289.94
417.828	313.94
418.051	342.94
418.274	331.94
418.497	324.94
418.72	332.94
418.943	298.94
419.166	318.94
419.389	320.94
419.611	308.94
419.834	325.94
420.057	340.94
420.28	333.94
420.503	329.94
420.726	332.94
420.948	345.94
421.171	379.94
421.394	375.94
421.617	337.94
421.839	332.94
422.062	336.94
422.285	341.94
422.507	369.94
422.73	421.94
422.953	418.94
423.175	361.94
423.398	340.94
423.621	325.94
423.843	333.94
424.066	345.94
424.288	356.94
424.511	350.94
424.733	394.94
424.956	453.94
425.178	449.94
425.401	437.94
425.623	445.94
425.846	390.94
426.068	362.94
426.291	348.94
426.513	340.94
426.735	361.94
426.958	381.94
427.18	455.94
427.402	534.94
427.625	590.94
427.847	513.94
428.069	426.94
428.292	410.94
428.514	359.94
428.736	356.94
428.958	318.94
429.181	320.94
429.403	327.94
429.625	331.94
429.847	371.94
430.069	382.94
430.292	392.94
430.514	332.94
430.736	334.94
430.958	332.94
431.18	298.94
431.402	314.94
431.624	323.94
431.846	296.94
432.068	291.94
432.29	314.94
432.512	301.94
432.734	325.94
432.956	318.94
433.178	306.94
433.4	292.94
433.622	310.94
433.844	305.94
434.066	322.94
434.287	301.94
434.509	323.94
434.731	324.94
434.953	326.94
435.175	334.94
435.397	340.94
435.618	354.94
435.84	373.94
436.062	453.94
436.284	491.94
436.505	401.94
436.727	377.94
436.949	348.94
437.17	346.94
437.392	344.94
437.614	342.94
437.835	385.94
438.057	429.94
438.278	473.94
438.5	486.94
438.721	514.94
438.943	500.94
439.165	397.94
439.386	390.94
439.608	376.94
439.829	382.94
440.05	394.94
440.272	428.94
440.493	387.94
440.715	346.94
440.936	346.94
441.158	333.94
441.379	348.94
441.6	324.94
441.822	335.94
442.043	386.94
442.264	412.94
442.486	482.94
442.707	381.94
442.928	381.94
443.149	377.94
443.371	383.94
443.592	435.94
443.813	468.94
444.034	501.94
444.255	410.94
444.476	377.94
444.698	361.94
444.919	358.94
445.14	437.94
445.361	414.94
445.582	380.94
445.803	460.94
446.024	506.94
446.245	522.94
446.466	460.94
446.687	380.94
446.908	361.94
447.129	338.94
447.35	329.94
447.571	320.94
447.792	334.94
448.013	329.94
448.234	361.94
448.455	392.94
448.675	452.94
448.896	518.94
449.117	455.94
449.338	418.94
449.559	515.94
449.779	538.94
450	442.94
450.221	392.94
450.442	331.94
450.662	327.94
450.883	325.94
451.104	342.94
451.324	342.94
451.545	322.94
451.766	306.94
451.986	287.94
452.207	300.94
452.428	298.94
452.648	296.94
452.869	298.94
453.089	317.94
453.31	310.94
453.53	310.94
453.751	285.94
453.971	302.94
454.192	320.94
454.412	311.94
454.633	305.94
454.853	310.94
455.073	292.94
455.294	314.94
455.514	357.94
455.734	351.94
455.955	304.94
456.175	298.94
456.395	276.94
456.616	280.94
456.836	274.94
457.056	284.94
457.276	274.94
457.497	288.94
457.717	270.94
457.937	303.94
458.157	284.94
458.377	288.94
458.598	308.94
458.818	342.94
459.038	398.94
459.258	402.94
459.478	336.94
459.698	306.94
459.918	289.94
460.138	299.94
460.358	301.94
460.578	294.94
460.798	299.94
461.018	321.94
461.238	312.94
461.458	311.94
461.678	293.94
461.898	316.94
462.118	304.94
462.338	316.94
462.558	336.94
462.777	308.94
462.997	301.94
463.217	315.94
463.437	292.94
463.657	312.94
463.876	313.94
464.096	311.94
464.316	330.94
464.536	312.94
464.755	331.94
464.975	333.94
465.195	365.94
465.414	399.94
465.634	370.94
465.854	345.94
466.073	338.94
466.293	310.94
466.512	288.94
466.732	295.94
466.951	305.94
467.171	307.94
467.391	315.94
467.61	322.94
467.829	326.94
468.049	318.94
468.268	325.94
468.488	300.94
468.707	285.94
468.927	298.94
469.146	293.94
469.365	300.94
469.585	290.94
469.804	294.94
470.023	318.94
470.243	314.94
470.462	305.94
470.681	324.94
470.901	328.94
471.12	315.94
471.339	312.94
471.558	303.94
471.777	297.94
471.997	285.94
472.216	325.94
472.435	358.94
472.654	325.94
472.873	319.94
473.092	306.94
473.311	306.94
473.53	306.94
473.749	329.94
473.968	339.94
474.187	408.94
474.406	416.94
474.625	350.94
474.844	319.94
475.063	310.94
475.282	301.94
475.501	301.94
475.72	328.94
475.939	316.94
476.158	318.94
476.377	302.94
476.596	296.94
476.814	331.94
477.033	322.94
477.252	339.94
477.471	312.94
477.69	328.94
477.908	329.94
478.127	322.94
478.346	329.94
478.564	330.94
478.783	317.94
479.002	333.94
479.22	341.94
479.439	364.94
479.658	381.94
479.876	368.94
480.095	373.94
480.313	374.94
480.532	368.94
480.751	356.94
480.969	365.94
481.188	418.94
481.406	464.94
481.624	388.94
481.843	348.94
482.061	369.94
482.28	357.94
482.498	357.94
482.717	350.94
482.935	328.94
483.153	337.94
483.372	341.94
483.59	353.94
483.808	340.94
484.027	354.94
484.245	355.94
484.463	369.94
484.681	353.94
484.9	352.94
485.118	347.94
485.336	357.94
485.554	377.94
485.772	360.94
485.99	357.94
486.209	358.94
486.427	361.94
486.645	376.94
486.863	382.94
487.081	396.94
487.299	379.94
487.517	386.94
487.735	390.94
487.953	389.94
488.171	398.94
488.389	383.94
488.607	380.94
488.825	381.94
489.043	399.94
489.261	389.94
489.479	373.94
489.696	367.94
489.914	365.94
490.132	398.94
490.35	403.94
490.568	380.94
490.786	416.94
491.003	431.94
491.221	422.94
491.439	416.94
491.657	405.94
491.874	414.94
492.092	438.94
492.31	413.94
492.527	423.94
492.745	444.94
492.963	441.94
493.18	441.94
493.398	437.94
493.615	430.94
493.833	440.94
494.05	434.94
494.268	445.94
494.485	450.94
494.703	453.94
494.92	437.94
495.138	437.94
495.355	445.94
495.573	454.94
495.79	441.94
496.008	424.94
496.225	437.94
496.442	452.94
496.66	445.94
496.877	444.94
497.094	438.94
497.312	433.94
497.529	458.94
497.746	452.94
497.963	460.94
498.181	507.94
498.398	470.94
498.615	464.94
498.832	473.94
499.049	480.94
499.267	488.94
499.484	513.94
499.701	506.94
499.918	500.94
500.135	506.94
500.352	541.94
500.569	554.94
500.786	522.94
501.003	524.94
501.22	510.94
501.437	542.94
501.654	529.94
501.871	541.94
502.088	521.94
502.305	491.94
502.522	474.94
502.739	478.94
502.956	486.94
503.172	461.94
503.389	432.94
503.606	449.94
503.823	452.94
504.04	455.94
504.256	461.94
504.473	442.94
504.69	452.94
504.907	452.94
505.123	431.94
505.34	419.94
505.557	430.94
505.773	409.94
505.99	420.94
506.207	442.94
506.423	438.94
506.64	425.94
506.856	424.94
507.073	423.94
507.289	424.94
507.506	429.94
507.722	437.94
507.939	443.94
508.155	446.94
508.372	417.94
508.588	410.94
508.805	442.94
509.021	412.94
509.238	438.94
509.454	424.94
509.67	439.94
509.887	431.94
510.103	422.94
510.319	426.94
510.536	523.94
510.752	844.94
510.968	648.94
511.184	438.94
511.401	411.94
511.617	399.94
511.833	427.94
512.049	417.94
512.265	390.94
512.481	381.94
512.698	391.94
512.914	392.94
513.13	381.94
513.346	406.94
513.562	380.94
513.778	393.94
513.994	390.94
514.21	406.94
514.426	439.94
514.642	460.94
514.858	473.94
515.074	502.94
515.29	613.94
515.506	870.94
515.721	724.94
515.937	497.94
516.153	434.94
516.369	434.94
516.585	437.94
516.801	413.94
517.016	404.94
517.232	384.94
517.448	393.94
517.664	409.94
517.879	391.94
518.095	409.94
518.311	407.94
518.527	393.94
518.742	396.94
518.958	384.94
519.173	395.94
519.389	401.94
519.605	388.94
519.82	414.94
520.036	429.94
520.251	429.94
520.467	465.94
520.682	456.94
520.898	465.94
521.113	450.94
521.329	504.94
521.544	606.94
521.76	732.94
521.975	1212.94
522.19	1118.94
522.406	636.94
522.621	506.94
522.836	430.94
523.052	396.94
523.267	389.94
523.482	364.94
523.698	366.94
523.913	359.94
524.128	370.94
524.343	360.94
524.559	352.94
524.774	344.94
524.989	344.94
525.204	348.94
525.419	363.94
525.634	336.94
525.849	340.94
526.064	328.94
526.28	326.94
526.495	322.94
526.71	341.94
526.925	332.94
527.14	308.94
527.355	327.94
527.57	336.94
527.785	318.94
527.999	305.94
528.214	316.94
528.429	312.94
528.644	315.94
528.859	323.94
529.074	308.94
529.289	340.94
529.503	410.94
529.718	378.94
529.933	344.94
530.148	324.94
530.363	326.94
530.577	323.94
530.792	314.94
531.007	314.94
531.221	323.94
531.436	324.94
531.651	318.94
531.865	298.94
532.08	322.94
532.295	288.94
532.509	316.94
532.724	291.94
532.938	299.94
533.153	302.94
533.367	299.94
533.582	315.94
533.796	306.94
534.011	316.94
534.225	315.94
534.44	307.94
534.654	288.94
534.868	314.94
535.083	288.94
535.297	310.94
535.511	294.94
535.726	308.94
535.94	305.94
536.154	302.94
536.369	292.94
536.583	306.94
536.797	297.94
537.011	294.94
537.225	285.94
537.44	278.94
537.654	280.94
537.868	283.94
538.082	309.94
538.296	286.94
538.51	296.94
538.724	282.94
538.938	288.94
539.153	292.94
539.367	315.94
539.581	306.94
539.795	305.94
540.009	273.94
540.222	292.94
540.436	301.94
540.65	300.94
540.864	307.94
541.078	325.94
541.292	307.94
541.506	312.94
541.72	292.94
541.934	292.94
542.147	308.94
542.361	284.94
542.575	282.94
542.789	294.94
543.002	290.94
543.216	291.94
543.43	297.94
543.644	294.94
543.857	284.94
544.071	282.94
544.285	310.94
544.498	310.94
544.712	294.94
544.925	295.94
545.139	278.94
545.352	269.94
545.566	281.94
545.779	270.94
545.993	279.94
546.206	275.94
546.42	269.94
546.633	285.94
546.847	268.94
547.06	266.94
547.274	270.94
547.487	274.94
547.7	271.94
547.914	282.94
548.127	260.94
548.34	274.94
548.554	264.94
548.767	288.94
548.98	277.94
549.193	275.94
549.407	271.94
549.62	282.94
549.833	266.94
550.046	277.94
550.259	290.94
550.473	269.94
550.686	269.94
550.899	277.94
551.112	265.94
551.325	265.94
551.538	276.94
551.751	280.94
551.964	264.94
552.177	265.94
552.39	271.94
552.603	259.94
552.816	283.94
553.029	254.94
553.242	278.94
553.455	273.94
553.667	273.94
553.88	300.94
554.093	300.94
554.306	281.94
554.519	282.94
554.732	269.94
554.944	284.94
555.157	265.94
555.37	274.94
555.583	276.94
555.795	268.94
556.008	270.94
556.221	257.94
556.433	263.94
556.646	249.94
556.859	263.94
557.071	263.94
557.284	249.94
557.496	247.94
557.709	257.94
557.921	258.94
558.134	247.94
558.346	252.94
558.559	249.94
558.771	225.94
558.984	258.94
559.196	252.94
559.409	249.94
559.621	247.94
559.833	243.94
560.046	253.94
560.258	247.94
560.47	245.94
560.683	241.94
560.895	250.94
561.107	247.94
561.32	247.94
561.532	241.94
561.744	232.94
561.956	236.94
562.168	249.94
562.381	260.94
562.593	237.94
562.805	248.94
563.017	246.94
563.229	249.94
563.441	249.94
563.653	245.94
563.865	236.94
564.077	255.94
564.289	250.94
564.501	244.94
564.713	260.94
564.925	270.94
565.137	265.94
565.349	262.94
565.561	250.94
565.773	262.94
565.985	269.94
566.197	258.94
566.408	249.94
566.62	267.94
566.832	265.94
567.044	260.94
567.255	278.94
567.467	264.94
567.679	269.94
567.891	285.94
568.102	285.94
568.314	263.94
568.526	267.94
568.737	278.94
568.949	266.94
569.161	263.94
569.372	252.94
569.584	240.94
569.795	256.94
570.007	236.94
570.218	290.94
570.43	270.94
570.641	246.94
570.853	217.94
571.064	217.94
571.276	233.94
571.487	242.94
571.698	224.94
571.91	246.94
572.121	224.94
572.333	237.94
572.544	221.94
572.755	202.94
572.966	219.94
573.178	229.94
573.389	227.94
573.6	235.94
573.811	205.94
574.023	219.94
574.234	222.94
574.445	212.94
574.656	199.94
574.867	229.94
575.078	214.94
575.289	221.94
575.501	230.94
575.712	215.94
575.923	203.94
576.134	224.94
576.345	205.94
576.556	217.94
576.767	209.94
576.978	219.94
577.188	218.94
577.399	216.94
577.61	201.94
577.821	210.94
578.032	215.94
578.243	236.94
578.454	380.94
578.665	302.94
578.875	216.94
579.086	209.94
579.297	211.94
579.508	209.94
579.718	209.94
579.929	202.94
580.14	216.94
580.35	206.94
580.561	218.94
580.772	199.94
580.982	198.94
581.193	208.94
581.403	187.94
581.614	213.94
581.825	203.94
582.035	206.94
582.246	203.94
582.456	220.94
582.667	203.94
582.877	188.94
583.087	212.94
583.298	214.94
583.508	201.94
583.719	204.94
583.929	218.94
584.139	202.94
584.35	189.94
584.56	188.94
584.77	208.94
584.981	207.94
585.191	204.94
585.401	195.94
585.611	195.94
585.821	203.94
586.032	209.94
586.242	189.94
586.452	189.94
586.662	200.94
586.872	194.94
587.082	195.94
587.292	202.94
587.502	198.94
587.713	201.94
587.923	198.94
588.133	212.94
588.343	191.94
588.553	191.94
588.762	189.94
588.972	204.94
589.182	178.94
589.392	190.94
589.602	193.94
589.812	204.94
590.022	195.94
590.232	192.94
590.441	208.94
590.651	202.94
590.861	192.94
591.071	181.94
591.281	179.94
591.49	189.94
591.7	186.94
591.91	203.94
592.119	190.94
592.329	202.94
592.539	209.94
592.748	211.94
592.958	211.94
593.167	215.94
593.377	188.94
593.587	194.94
593.796	192.94
594.006	203.94
594.215	192.94
594.424	182.94
594.634	192.94
594.843	196.94
595.053	194.94
595.262	214.94
595.472	196.94
595.681	192.94
595.89	180.94
596.1	215.94
596.309	202.94
596.518	176.94
596.727	180.94
596.937	189.94
597.146	164.94
597.355	173.94
597.564	173.94
597.774	177.94
597.983	186.94
598.192	173.94
598.401	186.94
598.61	165.94
598.819	187.94
599.028	195.94
599.237	170.94
599.446	176.94
599.655	185.94
599.864	162.94
600.073	195.94
600.282	177.94
600.491	168.94
600.7	168.94
600.909	171.94
601.118	170.94
601.327	190.94
601.536	170.94
601.745	176.94
601.953	178.94
602.162	170.94
602.371	165.94
602.58	165.94
602.789	164.94
602.997	172.94
603.206	188.94
603.415	190.94
603.623	161.94
603.832	187.94
604.041	178.94
604.249	191.94
604.458	180.94
604.666	167.94
604.875	180.94
605.084	157.94
605.292	160.94
605.501	152.94
605.709	167.94
605.918	166.94
606.126	170.94
606.334	180.94
606.543	170.94
606.751	172.94
606.96	190.94
607.168	168.94
607.376	169.94
607.585	177.94
607.793	162.94
608.001	160.94
608.21	169.94
608.418	176.94
608.626	168.94
608.834	168.94
609.043	176.94
609.251	168.94
609.459	167.94
609.667	179.94
609.875	170.94
610.083	158.94
610.291	169.94
610.499	181.94
610.707	170.94
610.916	180.94
611.124	171.94
611.332	171.94
611.54	174.94
611.748	172.94
611.955	167.94
612.163	178.94
612.371	166.94
612.579	162.94
612.787	164.94
612.995	167.94
613.203	170.94
613.411	160.94
613.618	162.94
613.826	145.94
614.034	162.94
614.242	150.94
614.449	171.94
614.657	164.94
614.865	168.94
615.072	160.94
615.28	168.94
615.488	154.94
615.695	163.94
615.903	159.94
616.111	164.94
616.318	167.94
616.526	177.94
616.733	158.94
616.941	165.94
617.148	181.94
617.356	176.94
617.563	177.94
617.771	156.94
617.978	156.94
618.185	161.94
618.393	166.94
618.6	171.94
618.807	149.94
619.015	158.94
619.222	163.94
619.429	154.94
619.637	173.94
619.844	152.94
620.051	162.94
620.258	161.94
620.466	169.94
620.673	162.94
620.88	156.94
621.087	152.94
621.294	157.94
621.501	161.94
621.708	151.94
621.915	156.94
622.122	162.94
622.329	163.94
622.536	157.94
622.743	150.94
622.95	156.94
623.157	154.94
623.364	144.94
623.571	154.94
623.778	153.94
623.985	152.94
624.192	148.94
624.399	164.94
624.606	157.94
624.812	149.94
625.019	157.94
625.226	161.94
625.433	156.94
625.639	138.94
625.846	152.94
626.053	160.94
626.259	141.94
626.466	168.94
626.673	154.94
626.879	144.94
627.086	157.94
627.293	158.94
627.499	173.94
627.706	164.94
627.912	153.94
628.119	158.94
628.325	143.94
628.532	140.94
628.738	146.94
628.945	152.94
629.151	153.94
629.357	155.94
629.564	133.94
629.77	160.94
629.976	138.94
630.183	144.94
630.389	132.94
630.595	135.94
630.802	138.94
631.008	146.94
631.214	148.94
631.42	154.94
631.627	146.94
631.833	140.94
632.039	125.94
632.245	137.94
632.451	149.94
632.657	139.94
632.863	137.94
633.069	136.94
633.275	146.94
633.481	121.94
633.688	131.94
633.893	148.94
634.099	152.94
634.305	143.94
634.511	134.94
634.717	147.94
634.923	138.94
635.129	144.94
635.335	128.94
635.541	129.94
635.747	140.94
635.952	140.94
636.158	141.94
636.364	152.94
636.57	134.94
636.775	134.94
636.981	142.94
637.187	139.94
637.392	134.94
637.598	133.94
637.804	137.94
638.009	130.94
638.215	129.94
638.421	134.94
638.626	143.94
638.832	140.94
639.037	133.94
639.243	134.94
639.448	133.94
639.654	145.94
639.859	124.94
640.065	130.94
640.27	140.94
640.475	132.94
640.681	125.94
640.886	132.94
641.091	122.94
641.297	153.94
641.502	131.94
641.707	123.94
641.913	136.94
642.118	125.94
642.323	120.94
642.528	128.94
642.733	131.94
642.939	122.94
643.144	128.94
643.349	128.94
643.554	135.94
643.759	123.94
643.964	132.94
644.169	135.94
644.374	134.94
644.579	99.94
644.784	122.94
644.989	119.94
645.194	125.94
645.399	135.94
645.604	132.94
645.809	124.94
646.014	129.94
646.219	117.94
646.423	125.94
646.628	130.94
646.833	122.94
647.038	129.94
647.243	136.94
647.447	133.94
647.652	138.94
647.857	135.94
648.062	125.94
648.266	137.94
648.471	113.94
648.676	120.94
648.88	132.94
649.085	138.94
649.289	128.94
649.494	130.94
649.698	161.94
649.903	136.94
650.107	137.94
650.312	140.94
650.516	122.94
650.721	128.94
650.925	139.94
651.13	127.94
651.334	134.94
651.539	115.94
651.743	117.94
651.947	122.94
652.152	110.94
652.356	119.94
652.56	118.94
652.764	118.94
652.969	133.94
653.173	121.94
653.377	126.94
653.581	119.94
653.785	128.94
653.99	121.94
654.194	127.94
654.398	121.94
654.602	119.94
654.806	124.94
655.01	132.94
655.214	108.94
655.418	119.94
655.622	123.94
655.826	123.94
656.03	112.94
656.234	112.94
656.438	129.94
656.642	135.94
656.846	119.94
657.049	108.94
657.253	107.94
657.457	103.94
657.661	123.94
657.865	88.94
658.068	107.94
658.272	99.94
658.476	92.94
658.68	104.94
658.883	107.94
659.087	92.94
659.291	99.94
659.494	113.94
659.698	102.94
659.901	94.94
660.105	90.94
660.309	104.94
660.512	104.94
660.716	98.94
660.919	75.94
661.123	89.94
661.326	100.94
661.53	96.94
661.733	84.94
661.936	93.94
662.14	82.94
662.343	80.94
662.546	90.94
662.75	72.94
662.953	93.94
663.156	82.94
663.36	103.94
663.563	89.94
663.766	81.94
663.969	93.94
664.173	89.94
664.376	88.94
664.579	75.94
664.782	79.94
664.985	76.94
665.188	99.94
665.391	77.94
665.594	77.94
665.797	95.94
666	74.94
666.203	82.94
666.406	78.94
666.609	78.94
666.812	71.94
667.015	86.94
667.218	77.94
667.421	68.94
667.624	67.94
667.827	96.94
668.03	93.94
668.232	89.94
668.435	90.94
668.638	84.94
668.841	79.94
669.043	80.94
669.246	82.94
669.449	75.94
669.651	87.94
669.854	77.94
670.057	84.94
670.259	78.94
670.462	74.94
670.665	73.94
670.867	72.94
671.07	75.94
671.272	76.94
671.475	90.94
671.677	81.94
671.88	76.94
672.082	88.94
672.284	92.94
672.487	85.94
672.689	81.94
672.892	91.94
