Data from 1985.PennyLincolnUp.Lamp.En5.5.200Scan.071819.P1_HRD10591_17-02-45-970.txt Node
Date: Thu Jul 18 17:02:45 EDT 2019
User: cochatt
Spectrometer: HR+D1059
Trigger mode: 1
Integration Time (sec): 1.000000E-1
Scans to average: 1
Electric dark correction enabled: true
Nonlinearity correction enabled: false
Boxcar width: 0
XAxis mode: Wavelengths
Number of Pixels in Spectrum: 2048
>>>>>Begin Spectral Data<<<<<
223.165	-19.56
223.4	-19.56
223.635	-19.56
223.869	-1.56
224.104	-13.56
224.338	-19.56
224.573	-15.56
224.808	-11.56
225.042	-8.56
225.277	-2.56
225.511	8.44
225.746	5.44
225.98	10.44
226.215	6.44
226.449	-1.56
226.683	10.44
226.918	20.44
227.152	32.44
227.387	25.44
227.621	20.44
227.856	53.44
228.09	55.44
228.324	44.44
228.559	45.44
228.793	68.44
229.027	78.44
229.262	106.44
229.496	102.44
229.73	113.44
229.964	151.44
230.199	113.44
230.433	102.44
230.667	116.44
230.901	97.44
231.136	102.44
231.37	108.44
231.604	91.44
231.838	102.44
232.072	97.44
232.306	99.44
232.541	114.44
232.775	118.44
233.009	117.44
233.243	111.44
233.477	109.44
233.711	118.44
233.945	117.44
234.179	111.44
234.413	118.44
234.647	102.44
234.881	112.44
235.115	115.44
235.349	117.44
235.583	119.44
235.817	113.44
236.051	105.44
236.285	125.44
236.519	119.44
236.753	142.44
236.987	142.44
237.221	183.44
237.455	203.44
237.689	183.44
237.922	135.44
238.156	130.44
238.39	125.44
238.624	104.44
238.858	138.44
239.091	112.44
239.325	105.44
239.559	126.44
239.793	137.44
240.027	134.44
240.26	136.44
240.494	143.44
240.728	146.44
240.961	147.44
241.195	138.44
241.429	138.44
241.662	134.44
241.896	143.44
242.13	132.44
242.363	140.44
242.597	139.44
242.83	148.44
243.064	140.44
243.298	143.44
243.531	136.44
243.765	131.44
243.998	138.44
244.232	126.44
244.465	140.44
244.699	141.44
244.932	146.44
245.166	146.44
245.399	138.44
245.633	148.44
245.866	134.44
246.099	154.44
246.333	136.44
246.566	159.44
246.8	144.44
247.033	154.44
247.266	154.44
247.5	160.44
247.733	145.44
247.966	175.44
248.2	150.44
248.433	150.44
248.666	161.44
248.899	189.44
249.133	195.44
249.366	174.44
249.599	184.44
249.832	172.44
250.066	167.44
250.299	172.44
250.532	188.44
250.765	199.44
250.998	212.44
251.231	215.44
251.465	186.44
251.698	200.44
251.931	184.44
252.164	186.44
252.397	177.44
252.63	191.44
252.863	213.44
253.096	200.44
253.329	229.44
253.562	208.44
253.795	207.44
254.028	215.44
254.261	200.44
254.494	224.44
254.727	268.44
254.96	278.44
255.193	264.44
255.426	238.44
255.659	207.44
255.892	199.44
256.124	211.44
256.357	221.44
256.59	216.44
256.823	202.44
257.056	199.44
257.289	198.44
257.521	218.44
257.754	198.44
257.987	196.44
258.22	210.44
258.452	206.44
258.685	193.44
258.918	212.44
259.151	192.44
259.383	226.44
259.616	219.44
259.849	232.44
260.081	258.44
260.314	244.44
260.547	254.44
260.779	246.44
261.012	226.44
261.244	212.44
261.477	222.44
261.71	198.44
261.942	218.44
262.175	230.44
262.407	226.44
262.64	215.44
262.872	206.44
263.105	218.44
263.337	221.44
263.57	221.44
263.802	212.44
264.035	212.44
264.267	198.44
264.499	203.44
264.732	199.44
264.964	213.44
265.197	213.44
265.429	242.44
265.661	212.44
265.894	208.44
266.126	213.44
266.358	222.44
266.591	212.44
266.823	242.44
267.055	218.44
267.287	240.44
267.52	226.44
267.752	222.44
267.984	232.44
268.216	229.44
268.448	222.44
268.681	262.44
268.913	248.44
269.145	257.44
269.377	284.44
269.609	267.44
269.841	261.44
270.073	267.44
270.306	292.44
270.538	314.44
270.77	312.44
271.002	305.44
271.234	296.44
271.466	298.44
271.698	316.44
271.93	308.44
272.162	305.44
272.394	308.44
272.626	310.44
272.858	310.44
273.09	288.44
273.322	280.44
273.553	280.44
273.785	266.44
274.017	266.44
274.249	271.44
274.481	267.44
274.713	270.44
274.945	262.44
275.176	267.44
275.408	281.44
275.64	263.44
275.872	265.44
276.104	274.44
276.335	284.44
276.567	271.44
276.799	279.44
277.031	321.44
277.262	318.44
277.494	324.44
277.726	312.44
277.957	293.44
278.189	300.44
278.421	275.44
278.652	284.44
278.884	274.44
279.115	289.44
279.347	273.44
279.579	281.44
279.81	268.44
280.042	289.44
280.273	286.44
280.505	272.44
280.736	273.44
280.968	272.44
281.199	295.44
281.431	272.44
281.662	284.44
281.894	272.44
282.125	289.44
282.356	316.44
282.588	318.44
282.819	330.44
283.051	310.44
283.282	294.44
283.513	300.44
283.745	291.44
283.976	296.44
284.207	298.44
284.439	284.44
284.67	288.44
284.901	301.44
285.132	301.44
285.364	296.44
285.595	302.44
285.826	303.44
286.057	298.44
286.288	293.44
286.52	309.44
286.751	312.44
286.982	293.44
287.213	294.44
287.444	305.44
287.675	325.44
287.906	303.44
288.138	327.44
288.369	332.44
288.6	304.44
288.831	311.44
289.062	316.44
289.293	308.44
289.524	320.44
289.755	323.44
289.986	313.44
290.217	295.44
290.448	293.44
290.679	324.44
290.91	310.44
291.141	310.44
291.371	321.44
291.602	319.44
291.833	318.44
292.064	313.44
292.295	317.44
292.526	305.44
292.757	311.44
292.987	326.44
293.218	304.44
293.449	322.44
293.68	325.44
293.91	316.44
294.141	321.44
294.372	338.44
294.603	331.44
294.833	325.44
295.064	308.44
295.295	332.44
295.525	323.44
295.756	318.44
295.987	317.44
296.217	364.44
296.448	366.44
296.679	337.44
296.909	327.44
297.14	315.44
297.37	342.44
297.601	344.44
297.831	323.44
298.062	325.44
298.292	328.44
298.523	343.44
298.753	354.44
298.984	334.44
299.214	328.44
299.445	352.44
299.675	343.44
299.905	358.44
300.136	336.44
300.366	349.44
300.597	348.44
300.827	344.44
301.057	351.44
301.288	378.44
301.518	360.44
301.748	370.44
301.979	360.44
302.209	364.44
302.439	380.44
302.669	382.44
302.9	374.44
303.13	370.44
303.36	359.44
303.59	355.44
303.82	361.44
304.051	358.44
304.281	348.44
304.511	371.44
304.741	368.44
304.971	368.44
305.201	369.44
305.431	353.44
305.661	370.44
305.891	367.44
306.121	368.44
306.352	349.44
306.582	363.44
306.812	366.44
307.042	371.44
307.272	361.44
307.502	367.44
307.731	342.44
307.961	348.44
308.191	371.44
308.421	367.44
308.651	378.44
308.881	365.44
309.111	368.44
309.341	374.44
309.571	382.44
309.8	377.44
310.03	399.44
310.26	405.44
310.49	394.44
310.72	424.44
310.949	425.44
311.179	418.44
311.409	389.44
311.639	396.44
311.868	389.44
312.098	413.44
312.328	416.44
312.557	410.44
312.787	444.44
313.017	435.44
313.246	414.44
313.476	412.44
313.706	414.44
313.935	404.44
314.165	404.44
314.394	429.44
314.624	402.44
314.853	418.44
315.083	420.44
315.312	414.44
315.542	415.44
315.771	408.44
316.001	384.44
316.23	412.44
316.46	415.44
316.689	414.44
316.919	412.44
317.148	422.44
317.377	413.44
317.607	412.44
317.836	408.44
318.065	412.44
318.295	407.44
318.524	408.44
318.753	396.44
318.983	408.44
319.212	421.44
319.441	436.44
319.67	420.44
319.9	422.44
320.129	422.44
320.358	405.44
320.587	414.44
320.816	406.44
321.046	429.44
321.275	418.44
321.504	417.44
321.733	431.44
321.962	428.44
322.191	461.44
322.42	444.44
322.649	436.44
322.878	469.44
323.108	477.44
323.337	498.44
323.566	534.44
323.795	544.44
324.024	592.44
324.253	708.44
324.482	975.44
324.71	1415.44
324.939	2072.44
325.168	1749.44
325.397	906.44
325.626	659.44
325.855	572.44
326.084	540.44
326.313	532.44
326.542	529.44
326.77	561.44
326.999	654.44
327.228	877.44
327.457	1288.44
327.686	1534.44
327.914	1034.44
328.143	695.44
328.372	624.44
328.6	607.44
328.829	582.44
329.058	592.44
329.287	580.44
329.515	576.44
329.744	532.44
329.972	535.44
330.201	521.44
330.43	544.44
330.658	589.44
330.887	609.44
331.115	613.44
331.344	566.44
331.572	529.44
331.801	530.44
332.03	516.44
332.258	505.44
332.486	508.44
332.715	480.44
332.943	520.44
333.172	523.44
333.4	547.44
333.629	521.44
333.857	548.44
334.085	548.44
334.314	513.44
334.542	533.44
334.771	549.44
334.999	506.44
335.227	525.44
335.455	494.44
335.684	496.44
335.912	487.44
336.14	485.44
336.369	468.44
336.597	487.44
336.825	510.44
337.053	500.44
337.281	492.44
337.51	498.44
337.738	496.44
337.966	474.44
338.194	485.44
338.422	486.44
338.65	468.44
338.878	482.44
339.106	463.44
339.334	469.44
339.562	470.44
339.79	485.44
340.018	461.44
340.246	471.44
340.474	472.44
340.702	453.44
340.93	455.44
341.158	445.44
341.386	469.44
341.614	443.44
341.842	471.44
342.07	455.44
342.298	453.44
342.526	455.44
342.754	448.44
342.981	446.44
343.209	453.44
343.437	437.44
343.665	473.44
343.893	478.44
344.12	487.44
344.348	489.44
344.576	505.44
344.804	492.44
345.031	489.44
345.259	482.44
345.487	487.44
345.714	462.44
345.942	444.44
346.17	460.44
346.397	434.44
346.625	449.44
346.853	433.44
347.08	429.44
347.308	428.44
347.535	441.44
347.763	461.44
347.99	439.44
348.218	454.44
348.445	456.44
348.673	463.44
348.9	459.44
349.128	438.44
349.355	428.44
349.583	421.44
349.81	412.44
350.037	422.44
350.265	441.44
350.492	410.44
350.72	419.44
350.947	430.44
351.174	443.44
351.402	463.44
351.629	438.44
351.856	430.44
352.083	445.44
352.311	457.44
352.538	451.44
352.765	458.44
352.992	444.44
353.22	418.44
353.447	444.44
353.674	426.44
353.901	412.44
354.128	421.44
354.355	398.44
354.583	421.44
354.81	427.44
355.037	426.44
355.264	404.44
355.491	398.44
355.718	432.44
355.945	393.44
356.172	399.44
356.399	403.44
356.626	435.44
356.853	407.44
357.08	392.44
357.307	424.44
357.534	417.44
357.761	420.44
357.988	415.44
358.215	415.44
358.441	416.44
358.668	408.44
358.895	415.44
359.122	408.44
359.349	432.44
359.576	420.44
359.802	444.44
360.029	484.44
360.256	499.44
360.483	475.44
360.709	432.44
360.936	438.44
361.163	415.44
361.39	414.44
361.616	409.44
361.843	419.44
362.07	436.44
362.296	450.44
362.523	439.44
362.749	441.44
362.976	419.44
363.203	417.44
363.429	424.44
363.656	419.44
363.882	425.44
364.109	415.44
364.335	430.44
364.562	418.44
364.788	424.44
365.015	422.44
365.241	429.44
365.468	443.44
365.694	446.44
365.92	417.44
366.147	402.44
366.373	425.44
366.599	413.44
366.826	416.44
367.052	419.44
367.278	410.44
367.505	415.44
367.731	435.44
367.957	414.44
368.184	417.44
368.41	426.44
368.636	435.44
368.862	437.44
369.089	430.44
369.315	418.44
369.541	414.44
369.767	431.44
369.993	402.44
370.219	414.44
370.445	401.44
370.672	398.44
370.898	418.44
371.124	435.44
371.35	434.44
371.576	404.44
371.802	430.44
372.028	412.44
372.254	422.44
372.48	424.44
372.706	421.44
372.932	432.44
373.158	422.44
373.384	410.44
373.61	407.44
373.835	426.44
374.061	448.44
374.287	434.44
374.513	442.44
374.739	421.44
374.965	422.44
375.191	439.44
375.416	442.44
375.642	450.44
375.868	434.44
376.094	418.44
376.319	415.44
376.545	394.44
376.771	403.44
376.997	420.44
377.222	412.44
377.448	425.44
377.674	428.44
377.899	402.44
378.125	404.44
378.35	412.44
378.576	408.44
378.802	418.44
379.027	409.44
379.253	404.44
379.478	402.44
379.704	416.44
379.929	423.44
380.155	389.44
380.38	413.44
380.606	409.44
380.831	405.44
381.057	417.44
381.282	426.44
381.507	397.44
381.733	419.44
381.958	435.44
382.184	413.44
382.409	427.44
382.634	432.44
382.86	423.44
383.085	429.44
383.31	430.44
383.535	416.44
383.761	428.44
383.986	445.44
384.211	446.44
384.436	455.44
384.662	435.44
384.887	437.44
385.112	460.44
385.337	475.44
385.562	457.44
385.787	458.44
386.013	493.44
386.238	487.44
386.463	472.44
386.688	461.44
386.913	450.44
387.138	459.44
387.363	446.44
387.588	466.44
387.813	462.44
388.038	446.44
388.263	474.44
388.488	455.44
388.713	488.44
388.938	460.44
389.163	461.44
389.387	443.44
389.612	461.44
389.837	453.44
390.062	457.44
390.287	442.44
390.512	429.44
390.736	472.44
390.961	470.44
391.186	468.44
391.411	488.44
391.636	480.44
391.86	473.44
392.085	488.44
392.31	479.44
392.534	471.44
392.759	479.44
392.984	463.44
393.208	464.44
393.433	458.44
393.658	447.44
393.882	471.44
394.107	478.44
394.331	483.44
394.556	438.44
394.78	486.44
395.005	466.44
395.229	468.44
395.454	495.44
395.678	492.44
395.903	496.44
396.127	526.44
396.352	504.44
396.576	485.44
396.801	500.44
397.025	494.44
397.249	488.44
397.474	475.44
397.698	516.44
397.922	518.44
398.147	511.44
398.371	529.44
398.595	515.44
398.82	540.44
399.044	553.44
399.268	604.44
399.492	646.44
399.717	661.44
399.941	672.44
400.165	695.44
400.389	682.44
400.613	629.44
400.837	571.44
401.062	562.44
401.286	578.44
401.51	560.44
401.734	553.44
401.958	553.44
402.182	551.44
402.406	574.44
402.63	569.44
402.854	559.44
403.078	569.44
403.302	578.44
403.526	558.44
403.75	577.44
403.974	603.44
404.198	591.44
404.422	585.44
404.645	573.44
404.869	590.44
405.093	604.44
405.317	623.44
405.541	663.44
405.765	600.44
405.988	586.44
406.212	602.44
406.436	606.44
406.66	608.44
406.883	609.44
407.107	641.44
407.331	665.44
407.555	751.44
407.778	752.44
408.002	669.44
408.226	604.44
408.449	617.44
408.673	611.44
408.896	600.44
409.12	665.44
409.344	644.44
409.567	575.44
409.791	572.44
410.014	560.44
410.238	534.44
410.461	562.44
410.685	579.44
410.908	572.44
411.132	586.44
411.355	622.44
411.578	584.44
411.802	554.44
412.025	542.44
412.249	537.44
412.472	580.44
412.695	576.44
412.919	569.44
413.142	547.44
413.365	541.44
413.589	517.44
413.812	544.44
414.035	508.44
414.258	526.44
414.482	522.44
414.705	529.44
414.928	527.44
415.151	525.44
415.374	559.44
415.597	532.44
415.821	514.44
416.044	503.44
416.267	521.44
416.49	521.44
416.713	501.44
416.936	508.44
417.159	516.44
417.382	519.44
417.605	551.44
417.828	553.44
418.051	541.44
418.274	532.44
418.497	510.44
418.72	520.44
418.943	513.44
419.166	572.44
419.389	578.44
419.611	567.44
419.834	551.44
420.057	561.44
420.28	532.44
420.503	540.44
420.726	536.44
420.948	549.44
421.171	589.44
421.394	604.44
421.617	550.44
421.839	537.44
422.062	567.44
422.285	569.44
422.507	577.44
422.73	660.44
422.953	671.44
423.175	598.44
423.398	564.44
423.621	552.44
423.843	595.44
424.066	592.44
424.288	593.44
424.511	612.44
424.733	649.44
424.956	710.44
425.178	670.44
425.401	694.44
425.623	688.44
425.846	604.44
426.068	588.44
426.291	540.44
426.513	543.44
426.735	551.44
426.958	599.44
427.18	700.44
427.402	772.44
427.625	863.44
427.847	750.44
428.069	649.44
428.292	581.44
428.514	551.44
428.736	558.44
428.958	525.44
429.181	494.44
429.403	500.44
429.625	528.44
429.847	560.44
430.069	614.44
430.292	580.44
430.514	517.44
430.736	526.44
430.958	518.44
431.18	493.44
431.402	497.44
431.624	503.44
431.846	496.44
432.068	484.44
432.29	477.44
432.512	480.44
432.734	514.44
432.956	501.44
433.178	507.44
433.4	495.44
433.622	508.44
433.844	479.44
434.066	518.44
434.287	498.44
434.509	500.44
434.731	525.44
434.953	553.44
435.175	552.44
435.397	556.44
435.618	557.44
435.84	610.44
436.062	660.44
436.284	742.44
436.505	593.44
436.727	585.44
436.949	536.44
437.17	521.44
437.392	522.44
437.614	521.44
437.835	561.44
438.057	633.44
438.278	714.44
438.5	742.44
438.721	796.44
438.943	754.44
439.165	602.44
439.386	548.44
439.608	560.44
439.829	554.44
440.05	586.44
440.272	631.44
440.493	623.44
440.715	544.44
440.936	542.44
441.158	537.44
441.379	517.44
441.6	553.44
441.822	567.44
442.043	601.44
442.264	672.44
442.486	700.44
442.707	625.44
442.928	582.44
443.149	572.44
443.371	596.44
443.592	650.44
443.813	762.44
444.034	786.44
444.255	637.44
444.476	578.44
444.698	606.44
444.919	593.44
445.14	710.44
445.361	648.44
445.582	596.44
445.803	649.44
446.024	732.44
446.245	754.44
446.466	675.44
446.687	608.44
446.908	548.44
447.129	521.44
447.35	520.44
447.571	522.44
447.792	498.44
448.013	485.44
448.234	536.44
448.455	597.44
448.675	661.44
448.896	794.44
449.117	648.44
449.338	619.44
449.559	702.44
449.779	818.44
450	637.44
450.221	526.44
450.442	538.44
450.662	509.44
450.883	520.44
451.104	497.44
451.324	492.44
451.545	486.44
451.766	480.44
451.986	462.44
452.207	444.44
452.428	446.44
452.648	463.44
452.869	457.44
453.089	457.44
453.31	481.44
453.53	444.44
453.751	469.44
453.971	475.44
454.192	492.44
454.412	473.44
454.633	471.44
454.853	443.44
455.073	458.44
455.294	473.44
455.514	536.44
455.734	514.44
455.955	459.44
456.175	403.44
456.395	429.44
456.616	423.44
456.836	431.44
457.056	433.44
457.276	408.44
457.497	452.44
457.717	438.44
457.937	424.44
458.157	437.44
458.377	450.44
458.598	484.44
458.818	518.44
459.038	602.44
459.258	637.44
459.478	540.44
459.698	532.44
459.918	514.44
460.138	503.44
460.358	513.44
460.578	513.44
460.798	532.44
461.018	519.44
461.238	545.44
461.458	535.44
461.678	530.44
461.898	538.44
462.118	534.44
462.338	541.44
462.558	536.44
462.777	556.44
462.997	590.44
463.217	593.44
463.437	611.44
463.657	577.44
463.876	585.44
464.096	597.44
464.316	569.44
464.536	559.44
464.755	584.44
464.975	581.44
465.195	569.44
465.414	653.44
465.634	586.44
465.854	557.44
466.073	518.44
466.293	481.44
466.512	496.44
466.732	476.44
466.951	476.44
467.171	484.44
467.391	474.44
467.61	499.44
467.829	473.44
468.049	492.44
468.268	466.44
468.488	473.44
468.707	461.44
468.927	455.44
469.146	446.44
469.365	459.44
469.585	457.44
469.804	473.44
470.023	480.44
470.243	492.44
470.462	487.44
470.681	530.44
470.901	494.44
471.12	492.44
471.339	508.44
471.558	478.44
471.777	476.44
471.997	473.44
472.216	467.44
472.435	475.44
472.654	476.44
472.873	451.44
473.092	462.44
473.311	460.44
473.53	476.44
473.749	465.44
473.968	499.44
474.187	593.44
474.406	648.44
474.625	541.44
474.844	493.44
475.063	485.44
475.282	475.44
475.501	474.44
475.72	485.44
475.939	479.44
476.158	490.44
476.377	491.44
476.596	474.44
476.814	493.44
477.033	506.44
477.252	509.44
477.471	512.44
477.69	504.44
477.908	521.44
478.127	542.44
478.346	533.44
478.564	561.44
478.783	552.44
479.002	569.44
479.22	539.44
479.439	553.44
479.658	572.44
479.876	582.44
480.095	597.44
480.313	614.44
480.532	581.44
480.751	603.44
480.969	590.44
481.188	612.44
481.406	631.44
481.624	576.44
481.843	569.44
482.061	576.44
482.28	558.44
482.498	555.44
482.717	574.44
482.935	575.44
483.153	552.44
483.372	554.44
483.59	559.44
483.808	552.44
484.027	581.44
484.245	555.44
484.463	567.44
484.681	580.44
484.9	561.44
485.118	581.44
485.336	568.44
485.554	558.44
485.772	583.44
485.99	585.44
486.209	583.44
486.427	598.44
486.645	591.44
486.863	607.44
487.081	594.44
487.299	606.44
487.517	583.44
487.735	574.44
487.953	587.44
488.171	600.44
488.389	579.44
488.607	594.44
488.825	602.44
489.043	610.44
489.261	580.44
489.479	592.44
489.696	616.44
489.914	606.44
490.132	609.44
490.35	618.44
490.568	606.44
490.786	626.44
491.003	620.44
491.221	631.44
491.439	630.44
491.657	644.44
491.874	642.44
492.092	669.44
492.31	663.44
492.527	670.44
492.745	677.44
492.963	670.44
493.18	681.44
493.398	694.44
493.615	679.44
493.833	696.44
494.05	722.44
494.268	705.44
494.485	680.44
494.703	701.44
494.92	679.44
495.138	712.44
495.355	686.44
495.573	673.44
495.79	697.44
496.008	715.44
496.225	692.44
496.442	681.44
496.66	725.44
496.877	708.44
497.094	735.44
497.312	716.44
497.529	740.44
497.746	768.44
497.963	765.44
498.181	800.44
498.398	826.44
498.615	814.44
498.832	833.44
499.049	877.44
499.267	914.44
499.484	955.44
499.701	969.44
499.918	1005.44
500.135	1134.44
500.352	1185.44
500.569	1174.44
500.786	1189.44
501.003	1166.44
501.22	1087.44
501.437	1057.44
501.654	1032.44
501.871	983.44
502.088	932.44
502.305	872.44
502.522	853.44
502.739	834.44
502.956	796.44
503.172	777.44
503.389	775.44
503.606	726.44
503.823	738.44
504.04	719.44
504.256	749.44
504.473	724.44
504.69	742.44
504.907	723.44
505.123	712.44
505.34	680.44
505.557	682.44
505.773	666.44
505.99	645.44
506.207	682.44
506.423	681.44
506.64	672.44
506.856	666.44
507.073	636.44
507.289	648.44
507.506	640.44
507.722	669.44
507.939	649.44
508.155	642.44
508.372	624.44
508.588	610.44
508.805	615.44
509.021	630.44
509.238	638.44
509.454	638.44
509.67	653.44
509.887	613.44
510.103	633.44
510.319	622.44
510.536	706.44
510.752	1171.44
510.968	926.44
511.184	640.44
511.401	612.44
511.617	587.44
511.833	585.44
512.049	567.44
512.265	572.44
512.481	571.44
512.698	580.44
512.914	597.44
513.13	592.44
513.346	592.44
513.562	575.44
513.778	600.44
513.994	601.44
514.21	611.44
514.426	622.44
514.642	642.44
514.858	676.44
515.074	674.44
515.29	836.44
515.506	1241.44
515.721	1058.44
515.937	739.44
516.153	681.44
516.369	643.44
516.585	643.44
516.801	637.44
517.016	625.44
517.232	651.44
517.448	666.44
517.664	669.44
517.879	654.44
518.095	662.44
518.311	649.44
518.527	641.44
518.742	637.44
518.958	641.44
519.173	626.44
519.389	625.44
519.605	604.44
519.82	608.44
520.036	624.44
520.251	632.44
520.467	626.44
520.682	658.44
520.898	633.44
521.113	654.44
521.329	682.44
521.544	751.44
521.76	961.44
521.975	1614.44
522.19	1624.44
522.406	875.44
522.621	632.44
522.836	620.44
523.052	604.44
523.267	589.44
523.482	548.44
523.698	532.44
523.913	551.44
524.128	542.44
524.343	527.44
524.559	523.44
524.774	505.44
524.989	521.44
525.204	522.44
525.419	553.44
525.634	514.44
525.849	489.44
526.064	478.44
526.28	480.44
526.495	502.44
526.71	493.44
526.925	484.44
527.14	496.44
527.355	472.44
527.57	465.44
527.785	471.44
527.999	493.44
528.214	498.44
528.429	488.44
528.644	487.44
528.859	478.44
529.074	495.44
529.289	518.44
529.503	577.44
529.718	562.44
529.933	520.44
530.148	518.44
530.363	478.44
530.577	470.44
530.792	494.44
531.007	486.44
531.221	480.44
531.436	465.44
531.651	469.44
531.865	458.44
532.08	476.44
532.295	476.44
532.509	463.44
532.724	469.44
532.938	457.44
533.153	485.44
533.367	475.44
533.582	470.44
533.796	449.44
534.011	462.44
534.225	475.44
534.44	451.44
534.654	468.44
534.868	467.44
535.083	469.44
535.297	464.44
535.511	457.44
535.726	441.44
535.94	474.44
536.154	482.44
536.369	437.44
536.583	444.44
536.797	456.44
537.011	433.44
537.225	472.44
537.44	442.44
537.654	437.44
537.868	432.44
538.082	457.44
538.296	477.44
538.51	458.44
538.724	455.44
538.938	430.44
539.153	457.44
539.367	424.44
539.581	452.44
539.795	428.44
540.009	441.44
540.222	426.44
540.436	453.44
540.65	432.44
540.864	471.44
541.078	465.44
541.292	458.44
541.506	447.44
541.72	447.44
541.934	450.44
542.147	430.44
542.361	440.44
542.575	432.44
542.789	433.44
543.002	423.44
543.216	432.44
543.43	458.44
543.644	429.44
543.857	442.44
544.071	436.44
544.285	425.44
544.498	445.44
544.712	450.44
544.925	443.44
545.139	446.44
545.352	435.44
545.566	428.44
545.779	457.44
545.993	435.44
546.206	449.44
546.42	437.44
546.633	423.44
546.847	433.44
547.06	428.44
547.274	442.44
547.487	443.44
547.7	449.44
547.914	415.44
548.127	428.44
548.34	437.44
548.554	420.44
548.767	421.44
548.98	423.44
549.193	433.44
549.407	425.44
549.62	436.44
549.833	424.44
550.046	425.44
550.259	422.44
550.473	413.44
550.686	444.44
550.899	412.44
551.112	406.44
551.325	428.44
551.538	416.44
551.751	425.44
551.964	418.44
552.177	427.44
552.39	439.44
552.603	435.44
552.816	433.44
553.029	430.44
553.242	425.44
553.455	408.44
553.667	446.44
553.88	470.44
554.093	449.44
554.306	423.44
554.519	434.44
554.732	412.44
554.944	421.44
555.157	407.44
555.37	405.44
555.583	415.44
555.795	404.44
556.008	408.44
556.221	406.44
556.433	382.44
556.646	399.44
556.859	374.44
557.071	388.44
557.284	372.44
557.496	388.44
557.709	357.44
557.921	372.44
558.134	365.44
558.346	392.44
558.559	378.44
558.771	380.44
558.984	372.44
559.196	384.44
559.409	356.44
559.621	357.44
559.833	371.44
560.046	362.44
560.258	363.44
560.47	373.44
560.683	384.44
560.895	367.44
561.107	377.44
561.32	368.44
561.532	374.44
561.744	382.44
561.956	383.44
562.168	372.44
562.381	387.44
562.593	374.44
562.805	370.44
563.017	376.44
563.229	384.44
563.441	390.44
563.653	385.44
563.865	384.44
564.077	405.44
564.289	390.44
564.501	395.44
564.713	385.44
564.925	409.44
565.137	416.44
565.349	412.44
565.561	403.44
565.773	419.44
565.985	451.44
566.197	468.44
566.408	458.44
566.62	471.44
566.832	498.44
567.044	485.44
567.255	536.44
567.467	511.44
567.679	533.44
567.891	552.44
568.102	526.44
568.314	532.44
568.526	521.44
568.737	479.44
568.949	455.44
569.161	450.44
569.372	425.44
569.584	421.44
569.795	404.44
570.007	394.44
570.218	437.44
570.43	447.44
570.641	375.44
570.853	372.44
571.064	393.44
571.276	377.44
571.487	370.44
571.698	362.44
571.91	355.44
572.121	360.44
572.333	349.44
572.544	358.44
572.755	337.44
572.966	351.44
573.178	327.44
573.389	327.44
573.6	323.44
573.811	329.44
574.023	321.44
574.234	337.44
574.445	328.44
574.656	323.44
574.867	342.44
575.078	349.44
575.289	329.44
575.501	317.44
575.712	320.44
575.923	306.44
576.134	313.44
576.345	302.44
576.556	321.44
576.767	332.44
576.978	310.44
577.188	317.44
577.399	323.44
577.61	306.44
577.821	317.44
578.032	326.44
578.243	347.44
578.454	568.44
578.665	414.44
578.875	328.44
579.086	300.44
579.297	313.44
579.508	289.44
579.718	289.44
579.929	282.44
580.14	291.44
580.35	305.44
580.561	300.44
580.772	293.44
580.982	279.44
581.193	278.44
581.403	290.44
581.614	298.44
581.825	287.44
582.035	269.44
582.246	276.44
582.456	299.44
582.667	289.44
582.877	295.44
583.087	291.44
583.298	281.44
583.508	288.44
583.719	276.44
583.929	281.44
584.139	294.44
584.35	272.44
584.56	289.44
584.77	280.44
584.981	294.44
585.191	300.44
585.401	298.44
585.611	264.44
585.821	265.44
586.032	302.44
586.242	286.44
586.452	268.44
586.662	291.44
586.872	294.44
587.082	289.44
587.292	280.44
587.502	273.44
587.713	304.44
587.923	282.44
588.133	271.44
588.343	293.44
588.553	273.44
588.762	282.44
588.972	258.44
589.182	292.44
589.392	270.44
589.602	277.44
589.812	296.44
590.022	279.44
590.232	279.44
590.441	293.44
590.651	284.44
590.861	279.44
591.071	268.44
591.281	288.44
591.49	280.44
591.7	306.44
591.91	292.44
592.119	294.44
592.329	304.44
592.539	317.44
592.748	309.44
592.958	306.44
593.167	327.44
593.377	334.44
593.587	342.44
593.796	328.44
594.006	320.44
594.215	305.44
594.424	322.44
594.634	292.44
594.843	304.44
595.053	323.44
595.262	293.44
595.472	312.44
595.681	272.44
595.89	279.44
596.1	268.44
596.309	291.44
596.518	266.44
596.727	261.44
596.937	261.44
597.146	262.44
597.355	264.44
597.564	269.44
597.774	262.44
597.983	244.44
598.192	258.44
598.401	262.44
598.61	278.44
598.819	255.44
599.028	245.44
599.237	278.44
599.446	262.44
599.655	256.44
599.864	260.44
600.073	241.44
600.282	252.44
600.491	241.44
600.7	250.44
600.909	252.44
601.118	230.44
601.327	242.44
601.536	256.44
601.745	226.44
601.953	241.44
602.162	230.44
602.371	223.44
602.58	230.44
602.789	228.44
602.997	242.44
603.206	240.44
603.415	241.44
603.623	233.44
603.832	252.44
604.041	230.44
604.249	233.44
604.458	231.44
604.666	236.44
604.875	221.44
605.084	232.44
605.292	233.44
605.501	228.44
605.709	225.44
605.918	217.44
606.126	246.44
606.334	239.44
606.543	237.44
606.751	225.44
606.96	214.44
607.168	213.44
607.376	231.44
607.585	234.44
607.793	239.44
608.001	212.44
608.21	218.44
608.418	224.44
608.626	222.44
608.834	227.44
609.043	226.44
609.251	224.44
609.459	229.44
609.667	224.44
609.875	221.44
610.083	233.44
610.291	225.44
610.499	219.44
610.707	234.44
610.916	205.44
611.124	233.44
611.332	220.44
611.54	228.44
611.748	221.44
611.955	227.44
612.163	225.44
612.371	242.44
612.579	213.44
612.787	229.44
612.995	206.44
613.203	230.44
613.411	231.44
613.618	216.44
613.826	220.44
614.034	226.44
614.242	219.44
614.449	221.44
614.657	226.44
614.865	221.44
615.072	242.44
615.28	225.44
615.488	231.44
615.695	224.44
615.903	242.44
616.111	244.44
616.318	214.44
616.526	211.44
616.733	218.44
616.941	210.44
617.148	225.44
617.356	223.44
617.563	229.44
617.771	230.44
617.978	221.44
618.185	230.44
618.393	220.44
618.6	222.44
618.807	223.44
619.015	198.44
619.222	202.44
619.429	233.44
619.637	216.44
619.844	230.44
620.051	206.44
620.258	208.44
620.466	198.44
620.673	206.44
620.88	201.44
621.087	201.44
621.294	202.44
621.501	217.44
621.708	207.44
621.915	217.44
622.122	208.44
622.329	212.44
622.536	198.44
622.743	194.44
622.95	199.44
623.157	200.44
623.364	201.44
623.571	218.44
623.778	204.44
623.985	201.44
624.192	224.44
624.399	211.44
624.606	197.44
624.812	212.44
625.019	204.44
625.226	205.44
625.433	207.44
625.639	192.44
625.846	199.44
626.053	197.44
626.259	188.44
626.466	220.44
626.673	189.44
626.879	193.44
627.086	212.44
627.293	198.44
627.499	189.44
627.706	183.44
627.912	190.44
628.119	210.44
628.325	177.44
628.532	188.44
628.738	189.44
628.945	188.44
629.151	188.44
629.357	170.44
629.564	170.44
629.77	178.44
629.976	197.44
630.183	195.44
630.389	186.44
630.595	176.44
630.802	189.44
631.008	188.44
631.214	177.44
631.42	182.44
631.627	190.44
631.833	197.44
632.039	179.44
632.245	165.44
632.451	163.44
632.657	190.44
632.863	180.44
633.069	186.44
633.275	193.44
633.481	178.44
633.688	161.44
633.893	184.44
634.099	176.44
634.305	189.44
634.511	182.44
634.717	174.44
634.923	166.44
635.129	168.44
635.335	158.44
635.541	145.44
635.747	170.44
635.952	184.44
636.158	172.44
636.364	185.44
636.57	167.44
636.775	167.44
636.981	169.44
637.187	162.44
637.392	176.44
637.598	163.44
637.804	167.44
638.009	176.44
638.215	188.44
638.421	176.44
638.626	181.44
638.832	155.44
639.037	161.44
639.243	165.44
639.448	162.44
639.654	165.44
639.859	168.44
640.065	149.44
640.27	170.44
640.475	166.44
640.681	144.44
640.886	162.44
641.091	173.44
641.297	178.44
641.502	179.44
641.707	160.44
641.913	152.44
642.118	170.44
642.323	168.44
642.528	167.44
642.733	170.44
642.939	166.44
643.144	165.44
643.349	185.44
643.554	165.44
643.759	168.44
643.964	156.44
644.169	151.44
644.374	140.44
644.579	164.44
644.784	147.44
644.989	157.44
645.194	149.44
645.399	162.44
645.604	150.44
645.809	165.44
646.014	165.44
646.219	149.44
646.423	146.44
646.628	162.44
646.833	165.44
647.038	154.44
647.243	166.44
647.447	154.44
647.652	166.44
647.857	171.44
648.062	176.44
648.266	174.44
648.471	158.44
648.676	172.44
648.88	145.44
649.085	159.44
649.289	162.44
649.494	155.44
649.698	172.44
649.903	190.44
650.107	160.44
650.312	161.44
650.516	157.44
650.721	148.44
650.925	153.44
651.13	145.44
651.334	144.44
651.539	152.44
651.743	153.44
651.947	151.44
652.152	143.44
652.356	132.44
652.56	158.44
652.764	149.44
652.969	126.44
653.173	148.44
653.377	142.44
653.581	136.44
653.785	129.44
653.99	126.44
654.194	142.44
654.398	134.44
654.602	132.44
654.806	128.44
655.01	139.44
655.214	142.44
655.418	125.44
655.622	122.44
655.826	113.44
656.03	125.44
656.234	124.44
656.438	156.44
656.642	132.44
656.846	132.44
657.049	131.44
657.253	118.44
657.457	135.44
657.661	99.44
657.865	113.44
658.068	108.44
658.272	110.44
658.476	123.44
658.68	104.44
658.883	100.44
659.087	87.44
659.291	98.44
659.494	104.44
659.698	108.44
659.901	100.44
660.105	88.44
660.309	93.44
660.512	97.44
660.716	84.44
660.919	102.44
661.123	104.44
661.326	95.44
661.53	80.44
661.733	85.44
661.936	83.44
662.14	85.44
662.343	96.44
662.546	96.44
662.75	81.44
662.953	85.44
663.156	82.44
663.36	68.44
663.563	89.44
663.766	73.44
663.969	85.44
664.173	76.44
664.376	78.44
664.579	102.44
664.782	78.44
664.985	79.44
665.188	77.44
665.391	85.44
665.594	78.44
665.797	83.44
666	74.44
666.203	84.44
666.406	82.44
666.609	90.44
666.812	90.44
667.015	72.44
667.218	74.44
667.421	67.44
667.624	69.44
667.827	86.44
668.03	71.44
668.232	67.44
668.435	74.44
668.638	82.44
668.841	85.44
669.043	90.44
669.246	95.44
669.449	71.44
669.651	85.44
669.854	74.44
670.057	82.44
670.259	74.44
670.462	75.44
670.665	83.44
670.867	76.44
671.07	74.44
671.272	92.44
671.475	81.44
671.677	77.44
671.88	80.44
672.082	83.44
672.284	78.44
672.487	70.44
672.689	85.44
672.892	72.44
