Data from 1985.PennyLincolnUp.Lamp.En5.5.200Scan.071819.P1_HRD10591_17-03-30-970.txt Node
Date: Thu Jul 18 17:03:30 EDT 2019
User: cochatt
Spectrometer: HR+D1059
Trigger mode: 1
Integration Time (sec): 1.000000E-1
Scans to average: 1
Electric dark correction enabled: true
Nonlinearity correction enabled: false
Boxcar width: 0
XAxis mode: Wavelengths
Number of Pixels in Spectrum: 2048
>>>>>Begin Spectral Data<<<<<
223.165	-15.81
223.4	-15.81
223.635	-15.81
223.869	-15.81
224.104	-9.81
224.338	-1.81
224.573	-9.81
224.808	-26.81
225.042	-3.81
225.277	-0.81
225.511	-1.81
225.746	7.19
225.98	4.19
226.215	15.19
226.449	11.19
226.683	8.19
226.918	20.19
227.152	20.19
227.387	25.19
227.621	39.19
227.856	45.19
228.09	44.19
228.324	50.19
228.559	44.19
228.793	66.19
229.027	85.19
229.262	93.19
229.496	119.19
229.73	126.19
229.964	138.19
230.199	118.19
230.433	112.19
230.667	107.19
230.901	105.19
231.136	97.19
231.37	108.19
231.604	100.19
231.838	103.19
232.072	110.19
232.306	126.19
232.541	97.19
232.775	105.19
233.009	92.19
233.243	100.19
233.477	115.19
233.711	116.19
233.945	100.19
234.179	110.19
234.413	114.19
234.647	116.19
234.881	109.19
235.115	103.19
235.349	97.19
235.583	108.19
235.817	113.19
236.051	123.19
236.285	119.19
236.519	129.19
236.753	132.19
236.987	151.19
237.221	161.19
237.455	209.19
237.689	164.19
237.922	146.19
238.156	133.19
238.39	116.19
238.624	136.19
238.858	119.19
239.091	128.19
239.325	122.19
239.559	120.19
239.793	139.19
240.027	132.19
240.26	120.19
240.494	152.19
240.728	154.19
240.961	135.19
241.195	148.19
241.429	134.19
241.662	140.19
241.896	130.19
242.13	128.19
242.363	133.19
242.597	121.19
242.83	136.19
243.064	151.19
243.298	136.19
243.531	128.19
243.765	147.19
243.998	149.19
244.232	157.19
244.465	128.19
244.699	139.19
244.932	139.19
245.166	146.19
245.399	138.19
245.633	160.19
245.866	146.19
246.099	157.19
246.333	148.19
246.566	140.19
246.8	149.19
247.033	156.19
247.266	167.19
247.5	164.19
247.733	184.19
247.966	178.19
248.2	171.19
248.433	170.19
248.666	160.19
248.899	161.19
249.133	162.19
249.366	200.19
249.599	205.19
249.832	174.19
250.066	188.19
250.299	173.19
250.532	205.19
250.765	211.19
250.998	219.19
251.231	217.19
251.465	193.19
251.698	199.19
251.931	194.19
252.164	188.19
252.397	210.19
252.63	197.19
252.863	179.19
253.096	205.19
253.329	217.19
253.562	214.19
253.795	204.19
254.028	214.19
254.261	201.19
254.494	213.19
254.727	237.19
254.96	256.19
255.193	253.19
255.426	231.19
255.659	232.19
255.892	221.19
256.124	235.19
256.357	231.19
256.59	220.19
256.823	219.19
257.056	221.19
257.289	219.19
257.521	208.19
257.754	199.19
257.987	201.19
258.22	198.19
258.452	208.19
258.685	207.19
258.918	218.19
259.151	201.19
259.383	189.19
259.616	210.19
259.849	215.19
260.081	225.19
260.314	241.19
260.547	254.19
260.779	232.19
261.012	229.19
261.244	228.19
261.477	221.19
261.71	228.19
261.942	233.19
262.175	225.19
262.407	240.19
262.64	221.19
262.872	223.19
263.105	215.19
263.337	222.19
263.57	211.19
263.802	224.19
264.035	217.19
264.267	212.19
264.499	213.19
264.732	222.19
264.964	213.19
265.197	226.19
265.429	235.19
265.661	231.19
265.894	218.19
266.126	212.19
266.358	221.19
266.591	231.19
266.823	225.19
267.055	233.19
267.287	223.19
267.52	234.19
267.752	235.19
267.984	236.19
268.216	234.19
268.448	233.19
268.681	232.19
268.913	248.19
269.145	275.19
269.377	278.19
269.609	278.19
269.841	278.19
270.073	275.19
270.306	291.19
270.538	331.19
270.77	295.19
271.002	296.19
271.234	287.19
271.466	268.19
271.698	320.19
271.93	317.19
272.162	314.19
272.394	315.19
272.626	302.19
272.858	288.19
273.09	283.19
273.322	298.19
273.553	270.19
273.785	266.19
274.017	266.19
274.249	268.19
274.481	266.19
274.713	282.19
274.945	264.19
275.176	275.19
275.408	270.19
275.64	271.19
275.872	263.19
276.104	278.19
276.335	271.19
276.567	288.19
276.799	287.19
277.031	282.19
277.262	332.19
277.494	304.19
277.726	308.19
277.957	307.19
278.189	290.19
278.421	288.19
278.652	286.19
278.884	281.19
279.115	276.19
279.347	285.19
279.579	272.19
279.81	267.19
280.042	268.19
280.273	270.19
280.505	283.19
280.736	284.19
280.968	289.19
281.199	294.19
281.431	284.19
281.662	293.19
281.894	276.19
282.125	303.19
282.356	329.19
282.588	321.19
282.819	326.19
283.051	307.19
283.282	293.19
283.513	286.19
283.745	289.19
283.976	291.19
284.207	291.19
284.439	311.19
284.67	299.19
284.901	301.19
285.132	298.19
285.364	297.19
285.595	296.19
285.826	294.19
286.057	311.19
286.288	301.19
286.52	292.19
286.751	293.19
286.982	309.19
287.213	305.19
287.444	311.19
287.675	309.19
287.906	309.19
288.138	316.19
288.369	311.19
288.6	339.19
288.831	329.19
289.062	334.19
289.293	327.19
289.524	316.19
289.755	299.19
289.986	308.19
290.217	311.19
290.448	308.19
290.679	314.19
290.91	324.19
291.141	323.19
291.371	312.19
291.602	296.19
291.833	317.19
292.064	317.19
292.295	313.19
292.526	325.19
292.757	315.19
292.987	329.19
293.218	321.19
293.449	310.19
293.68	328.19
293.91	313.19
294.141	315.19
294.372	323.19
294.603	322.19
294.833	323.19
295.064	345.19
295.295	320.19
295.525	321.19
295.756	345.19
295.987	348.19
296.217	352.19
296.448	389.19
296.679	332.19
296.909	337.19
297.14	329.19
297.37	316.19
297.601	341.19
297.831	325.19
298.062	336.19
298.292	332.19
298.523	338.19
298.753	344.19
298.984	342.19
299.214	316.19
299.445	338.19
299.675	363.19
299.905	347.19
300.136	347.19
300.366	356.19
300.597	336.19
300.827	342.19
301.057	343.19
301.288	348.19
301.518	355.19
301.748	362.19
301.979	371.19
302.209	351.19
302.439	346.19
302.669	369.19
302.9	357.19
303.13	358.19
303.36	339.19
303.59	378.19
303.82	386.19
304.051	379.19
304.281	378.19
304.511	376.19
304.741	358.19
304.971	360.19
305.201	370.19
305.431	368.19
305.661	383.19
305.891	353.19
306.121	368.19
306.352	368.19
306.582	334.19
306.812	364.19
307.042	374.19
307.272	373.19
307.502	377.19
307.731	379.19
307.961	377.19
308.191	353.19
308.421	394.19
308.651	366.19
308.881	380.19
309.111	384.19
309.341	385.19
309.571	394.19
309.8	388.19
310.03	408.19
310.26	396.19
310.49	392.19
310.72	402.19
310.949	407.19
311.179	402.19
311.409	423.19
311.639	418.19
311.868	390.19
312.098	410.19
312.328	399.19
312.557	424.19
312.787	429.19
313.017	436.19
313.246	421.19
313.476	404.19
313.706	407.19
313.935	424.19
314.165	427.19
314.394	450.19
314.624	427.19
314.853	416.19
315.083	408.19
315.312	404.19
315.542	413.19
315.771	399.19
316.001	434.19
316.23	423.19
316.46	407.19
316.689	417.19
316.919	413.19
317.148	377.19
317.377	441.19
317.607	409.19
317.836	434.19
318.065	412.19
318.295	412.19
318.524	413.19
318.753	405.19
318.983	410.19
319.212	403.19
319.441	426.19
319.67	406.19
319.9	416.19
320.129	397.19
320.358	407.19
320.587	417.19
320.816	425.19
321.046	414.19
321.275	424.19
321.504	442.19
321.733	439.19
321.962	456.19
322.191	445.19
322.42	456.19
322.649	469.19
322.878	470.19
323.108	473.19
323.337	489.19
323.566	527.19
323.795	536.19
324.024	577.19
324.253	672.19
324.482	910.19
324.71	1418.19
324.939	1972.19
325.168	1638.19
325.397	881.19
325.626	626.19
325.855	547.19
326.084	523.19
326.313	505.19
326.542	535.19
326.77	570.19
326.999	642.19
327.228	873.19
327.457	1232.19
327.686	1494.19
327.914	1003.19
328.143	715.19
328.372	613.19
328.6	567.19
328.829	541.19
329.058	562.19
329.287	589.19
329.515	555.19
329.744	524.19
329.972	513.19
330.201	539.19
330.43	570.19
330.658	605.19
330.887	606.19
331.115	609.19
331.344	547.19
331.572	540.19
331.801	522.19
332.03	549.19
332.258	526.19
332.486	498.19
332.715	519.19
332.943	509.19
333.172	514.19
333.4	523.19
333.629	504.19
333.857	547.19
334.085	547.19
334.314	577.19
334.542	562.19
334.771	563.19
334.999	566.19
335.227	525.19
335.455	505.19
335.684	508.19
335.912	493.19
336.14	512.19
336.369	502.19
336.597	478.19
336.825	487.19
337.053	489.19
337.281	477.19
337.51	488.19
337.738	472.19
337.966	480.19
338.194	479.19
338.422	500.19
338.65	492.19
338.878	460.19
339.106	464.19
339.334	469.19
339.562	477.19
339.79	450.19
340.018	464.19
340.246	453.19
340.474	467.19
340.702	473.19
340.93	464.19
341.158	465.19
341.386	459.19
341.614	452.19
341.842	464.19
342.07	428.19
342.298	456.19
342.526	452.19
342.754	443.19
342.981	441.19
343.209	445.19
343.437	453.19
343.665	486.19
343.893	475.19
344.12	484.19
344.348	504.19
344.576	480.19
344.804	475.19
345.031	457.19
345.259	477.19
345.487	465.19
345.714	468.19
345.942	460.19
346.17	481.19
346.397	466.19
346.625	433.19
346.853	417.19
347.08	424.19
347.308	429.19
347.535	443.19
347.763	437.19
347.99	441.19
348.218	449.19
348.445	461.19
348.673	467.19
348.9	437.19
349.128	444.19
349.355	439.19
349.583	438.19
349.81	407.19
350.037	421.19
350.265	425.19
350.492	429.19
350.72	409.19
350.947	425.19
351.174	449.19
351.402	449.19
351.629	462.19
351.856	424.19
352.083	454.19
352.311	438.19
352.538	459.19
352.765	464.19
352.992	458.19
353.22	442.19
353.447	437.19
353.674	420.19
353.901	411.19
354.128	404.19
354.355	416.19
354.583	434.19
354.81	417.19
355.037	417.19
355.264	439.19
355.491	426.19
355.718	429.19
355.945	428.19
356.172	405.19
356.399	401.19
356.626	417.19
356.853	425.19
357.08	423.19
357.307	416.19
357.534	422.19
357.761	389.19
357.988	398.19
358.215	413.19
358.441	408.19
358.668	419.19
358.895	435.19
359.122	452.19
359.349	429.19
359.576	434.19
359.802	458.19
360.029	468.19
360.256	482.19
360.483	473.19
360.709	448.19
360.936	440.19
361.163	442.19
361.39	437.19
361.616	450.19
361.843	430.19
362.07	426.19
362.296	444.19
362.523	425.19
362.749	439.19
362.976	425.19
363.203	432.19
363.429	414.19
363.656	408.19
363.882	408.19
364.109	433.19
364.335	422.19
364.562	422.19
364.788	423.19
365.015	416.19
365.241	404.19
365.468	411.19
365.694	422.19
365.92	422.19
366.147	419.19
366.373	417.19
366.599	425.19
366.826	427.19
367.052	413.19
367.278	421.19
367.505	410.19
367.731	402.19
367.957	422.19
368.184	425.19
368.41	452.19
368.636	432.19
368.862	434.19
369.089	438.19
369.315	417.19
369.541	423.19
369.767	418.19
369.993	450.19
370.219	416.19
370.445	424.19
370.672	418.19
370.898	437.19
371.124	433.19
371.35	429.19
371.576	405.19
371.802	429.19
372.028	419.19
372.254	409.19
372.48	404.19
372.706	430.19
372.932	416.19
373.158	407.19
373.384	436.19
373.61	418.19
373.835	434.19
374.061	429.19
374.287	420.19
374.513	418.19
374.739	434.19
374.965	449.19
375.191	448.19
375.416	430.19
375.642	426.19
375.868	430.19
376.094	417.19
376.319	440.19
376.545	420.19
376.771	414.19
376.997	418.19
377.222	432.19
377.448	422.19
377.674	418.19
377.899	408.19
378.125	408.19
378.35	418.19
378.576	397.19
378.802	409.19
379.027	403.19
379.253	412.19
379.478	426.19
379.704	401.19
379.929	429.19
380.155	411.19
380.38	406.19
380.606	411.19
380.831	389.19
381.057	432.19
381.282	428.19
381.507	436.19
381.733	426.19
381.958	422.19
382.184	434.19
382.409	434.19
382.634	412.19
382.86	429.19
383.085	442.19
383.31	440.19
383.535	435.19
383.761	435.19
383.986	445.19
384.211	456.19
384.436	450.19
384.662	449.19
384.887	426.19
385.112	455.19
385.337	466.19
385.562	470.19
385.787	453.19
386.013	482.19
386.238	464.19
386.463	488.19
386.688	477.19
386.913	452.19
387.138	444.19
387.363	467.19
387.588	448.19
387.813	466.19
388.038	478.19
388.263	476.19
388.488	481.19
388.713	478.19
388.938	444.19
389.163	451.19
389.387	481.19
389.612	458.19
389.837	450.19
390.062	451.19
390.287	459.19
390.512	451.19
390.736	435.19
390.961	445.19
391.186	450.19
391.411	481.19
391.636	478.19
391.86	501.19
392.085	481.19
392.31	483.19
392.534	477.19
392.759	474.19
392.984	477.19
393.208	479.19
393.433	470.19
393.658	484.19
393.882	456.19
394.107	454.19
394.331	465.19
394.556	480.19
394.78	447.19
395.005	478.19
395.229	464.19
395.454	499.19
395.678	467.19
395.903	482.19
396.127	537.19
396.352	489.19
396.576	475.19
396.801	483.19
397.025	494.19
397.249	489.19
397.474	508.19
397.698	480.19
397.922	514.19
398.147	490.19
398.371	541.19
398.595	521.19
398.82	545.19
399.044	554.19
399.268	571.19
399.492	634.19
399.717	678.19
399.941	667.19
400.165	676.19
400.389	677.19
400.613	615.19
400.837	579.19
401.062	578.19
401.286	542.19
401.51	537.19
401.734	516.19
401.958	540.19
402.182	549.19
402.406	544.19
402.63	531.19
402.854	547.19
403.078	544.19
403.302	565.19
403.526	569.19
403.75	568.19
403.974	586.19
404.198	565.19
404.422	583.19
404.645	568.19
404.869	576.19
405.093	611.19
405.317	658.19
405.541	678.19
405.765	628.19
405.988	574.19
406.212	607.19
406.436	630.19
406.66	625.19
406.883	591.19
407.107	644.19
407.331	675.19
407.555	750.19
407.778	729.19
408.002	658.19
408.226	629.19
408.449	617.19
408.673	595.19
408.896	627.19
409.12	682.19
409.344	658.19
409.567	610.19
409.791	580.19
410.014	572.19
410.238	543.19
410.461	540.19
410.685	558.19
410.908	571.19
411.132	601.19
411.355	618.19
411.578	605.19
411.802	554.19
412.025	556.19
412.249	585.19
412.472	594.19
412.695	622.19
412.919	581.19
413.142	569.19
413.365	538.19
413.589	527.19
413.812	565.19
414.035	515.19
414.258	528.19
414.482	514.19
414.705	514.19
414.928	533.19
415.151	514.19
415.374	524.19
415.597	527.19
415.821	518.19
416.044	519.19
416.267	504.19
416.49	521.19
416.713	525.19
416.936	501.19
417.159	525.19
417.382	515.19
417.605	526.19
417.828	566.19
418.051	550.19
418.274	550.19
418.497	536.19
418.72	515.19
418.943	512.19
419.166	541.19
419.389	572.19
419.611	551.19
419.834	534.19
420.057	555.19
420.28	566.19
420.503	536.19
420.726	528.19
420.948	537.19
421.171	585.19
421.394	622.19
421.617	557.19
421.839	536.19
422.062	515.19
422.285	533.19
422.507	605.19
422.73	681.19
422.953	653.19
423.175	576.19
423.398	571.19
423.621	574.19
423.843	586.19
424.066	572.19
424.288	573.19
424.511	599.19
424.733	638.19
424.956	690.19
425.178	672.19
425.401	690.19
425.623	688.19
425.846	613.19
426.068	562.19
426.291	565.19
426.513	578.19
426.735	568.19
426.958	589.19
427.18	666.19
427.402	790.19
427.625	866.19
427.847	781.19
428.069	653.19
428.292	588.19
428.514	559.19
428.736	538.19
428.958	516.19
429.181	514.19
429.403	497.19
429.625	528.19
429.847	539.19
430.069	627.19
430.292	610.19
430.514	512.19
430.736	510.19
430.958	511.19
431.18	498.19
431.402	493.19
431.624	485.19
431.846	490.19
432.068	489.19
432.29	488.19
432.512	504.19
432.734	497.19
432.956	518.19
433.178	498.19
433.4	493.19
433.622	500.19
433.844	510.19
434.066	485.19
434.287	489.19
434.509	499.19
434.731	545.19
434.953	532.19
435.175	553.19
435.397	537.19
435.618	552.19
435.84	577.19
436.062	675.19
436.284	723.19
436.505	602.19
436.727	547.19
436.949	524.19
437.17	513.19
437.392	520.19
437.614	508.19
437.835	542.19
438.057	637.19
438.278	721.19
438.5	724.19
438.721	779.19
438.943	762.19
439.165	596.19
439.386	548.19
439.608	568.19
439.829	546.19
440.05	586.19
440.272	635.19
440.493	568.19
440.715	560.19
440.936	523.19
441.158	539.19
441.379	523.19
441.6	544.19
441.822	566.19
442.043	592.19
442.264	685.19
442.486	733.19
442.707	593.19
442.928	562.19
443.149	589.19
443.371	613.19
443.592	622.19
443.813	718.19
444.034	773.19
444.255	646.19
444.476	633.19
444.698	598.19
444.919	582.19
445.14	718.19
445.361	657.19
445.582	621.19
445.803	669.19
446.024	718.19
446.245	747.19
446.466	672.19
446.687	600.19
446.908	547.19
447.129	551.19
447.35	506.19
447.571	492.19
447.792	500.19
448.013	513.19
448.234	551.19
448.455	563.19
448.675	676.19
448.896	757.19
449.117	658.19
449.338	624.19
449.559	728.19
449.779	806.19
450	637.19
450.221	545.19
450.442	512.19
450.662	496.19
450.883	492.19
451.104	522.19
451.324	520.19
451.545	497.19
451.766	466.19
451.986	452.19
452.207	461.19
452.428	466.19
452.648	476.19
452.869	461.19
453.089	456.19
453.31	454.19
453.53	445.19
453.751	464.19
453.971	455.19
454.192	463.19
454.412	465.19
454.633	436.19
454.853	432.19
455.073	446.19
455.294	490.19
455.514	538.19
455.734	530.19
455.955	448.19
456.175	443.19
456.395	428.19
456.616	438.19
456.836	425.19
457.056	433.19
457.276	432.19
457.497	441.19
457.717	444.19
457.937	437.19
458.157	469.19
458.377	427.19
458.598	463.19
458.818	522.19
459.038	624.19
459.258	578.19
459.478	543.19
459.698	524.19
459.918	483.19
460.138	503.19
460.358	530.19
460.578	539.19
460.798	524.19
461.018	522.19
461.238	525.19
461.458	539.19
461.678	516.19
461.898	538.19
462.118	531.19
462.338	564.19
462.558	580.19
462.777	557.19
462.997	590.19
463.217	601.19
463.437	616.19
463.657	584.19
463.876	562.19
464.096	587.19
464.316	565.19
464.536	592.19
464.755	580.19
464.975	571.19
465.195	562.19
465.414	636.19
465.634	557.19
465.854	530.19
466.073	504.19
466.293	486.19
466.512	489.19
466.732	482.19
466.951	508.19
467.171	492.19
467.391	473.19
467.61	508.19
467.829	515.19
468.049	478.19
468.268	487.19
468.488	478.19
468.707	468.19
468.927	460.19
469.146	455.19
469.365	455.19
469.585	465.19
469.804	473.19
470.023	497.19
470.243	489.19
470.462	487.19
470.681	481.19
470.901	527.19
471.12	485.19
471.339	497.19
471.558	502.19
471.777	501.19
471.997	469.19
472.216	477.19
472.435	510.19
472.654	492.19
472.873	483.19
473.092	457.19
473.311	466.19
473.53	498.19
473.749	477.19
473.968	508.19
474.187	599.19
474.406	624.19
474.625	531.19
474.844	483.19
475.063	472.19
475.282	493.19
475.501	486.19
475.72	492.19
475.939	488.19
476.158	508.19
476.377	506.19
476.596	498.19
476.814	489.19
477.033	497.19
477.252	505.19
477.471	507.19
477.69	515.19
477.908	515.19
478.127	519.19
478.346	541.19
478.564	532.19
478.783	523.19
479.002	553.19
479.22	545.19
479.439	569.19
479.658	564.19
479.876	585.19
480.095	580.19
480.313	611.19
480.532	621.19
480.751	592.19
480.969	611.19
481.188	640.19
481.406	651.19
481.624	607.19
481.843	553.19
482.061	588.19
482.28	580.19
482.498	547.19
482.717	540.19
482.935	562.19
483.153	541.19
483.372	506.19
483.59	586.19
483.808	555.19
484.027	566.19
484.245	564.19
484.463	566.19
484.681	588.19
484.9	581.19
485.118	577.19
485.336	560.19
485.554	571.19
485.772	578.19
485.99	578.19
486.209	583.19
486.427	584.19
486.645	598.19
486.863	594.19
487.081	564.19
487.299	600.19
487.517	588.19
487.735	576.19
487.953	599.19
488.171	567.19
488.389	596.19
488.607	584.19
488.825	598.19
489.043	630.19
489.261	606.19
489.479	596.19
489.696	591.19
489.914	596.19
490.132	608.19
490.35	622.19
490.568	635.19
490.786	630.19
491.003	624.19
491.221	650.19
491.439	668.19
491.657	646.19
491.874	680.19
492.092	668.19
492.31	681.19
492.527	666.19
492.745	677.19
492.963	679.19
493.18	685.19
493.398	689.19
493.615	698.19
493.833	689.19
494.05	693.19
494.268	707.19
494.485	685.19
494.703	681.19
494.92	697.19
495.138	690.19
495.355	701.19
495.573	685.19
495.79	698.19
496.008	712.19
496.225	693.19
496.442	701.19
496.66	733.19
496.877	715.19
497.094	715.19
497.312	729.19
497.529	718.19
497.746	746.19
497.963	762.19
498.181	752.19
498.398	786.19
498.615	827.19
498.832	832.19
499.049	852.19
499.267	893.19
499.484	887.19
499.701	997.19
499.918	1018.19
500.135	1103.19
500.352	1172.19
500.569	1192.19
500.786	1194.19
501.003	1175.19
501.22	1106.19
501.437	1047.19
501.654	974.19
501.871	988.19
502.088	929.19
502.305	877.19
502.522	832.19
502.739	818.19
502.956	797.19
503.172	790.19
503.389	755.19
503.606	775.19
503.823	753.19
504.04	718.19
504.256	739.19
504.473	741.19
504.69	728.19
504.907	723.19
505.123	693.19
505.34	690.19
505.557	666.19
505.773	699.19
505.99	678.19
506.207	658.19
506.423	666.19
506.64	632.19
506.856	658.19
507.073	655.19
507.289	658.19
507.506	647.19
507.722	640.19
507.939	650.19
508.155	635.19
508.372	642.19
508.588	616.19
508.805	638.19
509.021	617.19
509.238	628.19
509.454	639.19
509.67	658.19
509.887	627.19
510.103	606.19
510.319	636.19
510.536	713.19
510.752	1144.19
510.968	933.19
511.184	626.19
511.401	613.19
511.617	601.19
511.833	582.19
512.049	600.19
512.265	572.19
512.481	593.19
512.698	597.19
512.914	592.19
513.13	586.19
513.346	560.19
513.562	565.19
513.778	573.19
513.994	595.19
514.21	603.19
514.426	616.19
514.642	637.19
514.858	666.19
515.074	688.19
515.29	781.19
515.506	1184.19
515.721	1019.19
515.937	706.19
516.153	671.19
516.369	646.19
516.585	622.19
516.801	617.19
517.016	609.19
517.232	645.19
517.448	653.19
517.664	676.19
517.879	663.19
518.095	658.19
518.311	631.19
518.527	640.19
518.742	634.19
518.958	610.19
519.173	610.19
519.389	624.19
519.605	606.19
519.82	610.19
520.036	601.19
520.251	609.19
520.467	649.19
520.682	627.19
520.898	634.19
521.113	652.19
521.329	688.19
521.544	741.19
521.76	902.19
521.975	1480.19
522.19	1527.19
522.406	850.19
522.621	650.19
522.836	582.19
523.052	572.19
523.267	564.19
523.482	550.19
523.698	503.19
523.913	538.19
524.128	515.19
524.343	500.19
524.559	511.19
524.774	518.19
524.989	546.19
525.204	513.19
525.419	522.19
525.634	504.19
525.849	505.19
526.064	490.19
526.28	497.19
526.495	493.19
526.71	484.19
526.925	477.19
527.14	499.19
527.355	486.19
527.57	497.19
527.785	467.19
527.999	473.19
528.214	486.19
528.429	484.19
528.644	485.19
528.859	508.19
529.074	472.19
529.289	516.19
529.503	550.19
529.718	554.19
529.933	531.19
530.148	502.19
530.363	481.19
530.577	489.19
530.792	456.19
531.007	485.19
531.221	458.19
531.436	471.19
531.651	478.19
531.865	478.19
532.08	488.19
532.295	478.19
532.509	476.19
532.724	465.19
532.938	473.19
533.153	456.19
533.367	465.19
533.582	468.19
533.796	464.19
534.011	472.19
534.225	453.19
534.44	448.19
534.654	450.19
534.868	456.19
535.083	459.19
535.297	460.19
535.511	468.19
535.726	491.19
535.94	471.19
536.154	452.19
536.369	472.19
536.583	455.19
536.797	463.19
537.011	440.19
537.225	453.19
537.44	450.19
537.654	447.19
537.868	459.19
538.082	438.19
538.296	436.19
538.51	437.19
538.724	450.19
538.938	433.19
539.153	442.19
539.367	452.19
539.581	444.19
539.795	442.19
540.009	454.19
540.222	452.19
540.436	428.19
540.65	420.19
540.864	469.19
541.078	445.19
541.292	463.19
541.506	439.19
541.72	428.19
541.934	429.19
542.147	440.19
542.361	435.19
542.575	447.19
542.789	447.19
543.002	430.19
543.216	445.19
543.43	440.19
543.644	435.19
543.857	436.19
544.071	429.19
544.285	456.19
544.498	457.19
544.712	442.19
544.925	452.19
545.139	430.19
545.352	426.19
545.566	415.19
545.779	422.19
545.993	452.19
546.206	435.19
546.42	421.19
546.633	438.19
546.847	425.19
547.06	435.19
547.274	447.19
547.487	442.19
547.7	444.19
547.914	419.19
548.127	428.19
548.34	436.19
548.554	425.19
548.767	434.19
548.98	432.19
549.193	436.19
549.407	457.19
549.62	441.19
549.833	430.19
550.046	445.19
550.259	443.19
550.473	402.19
550.686	438.19
550.899	439.19
551.112	427.19
551.325	405.19
551.538	428.19
551.751	426.19
551.964	385.19
552.177	418.19
552.39	429.19
552.603	424.19
552.816	426.19
553.029	420.19
553.242	437.19
553.455	438.19
553.667	448.19
553.88	461.19
554.093	448.19
554.306	434.19
554.519	429.19
554.732	420.19
554.944	411.19
555.157	424.19
555.37	407.19
555.583	411.19
555.795	402.19
556.008	396.19
556.221	388.19
556.433	389.19
556.646	396.19
556.859	394.19
557.071	401.19
557.284	393.19
557.496	392.19
557.709	369.19
557.921	393.19
558.134	396.19
558.346	368.19
558.559	379.19
558.771	373.19
558.984	375.19
559.196	373.19
559.409	380.19
559.621	375.19
559.833	370.19
560.046	366.19
560.258	387.19
560.47	364.19
560.683	371.19
560.895	378.19
561.107	388.19
561.32	383.19
561.532	377.19
561.744	387.19
561.956	388.19
562.168	374.19
562.381	382.19
562.593	384.19
562.805	392.19
563.017	398.19
563.229	383.19
563.441	382.19
563.653	393.19
563.865	402.19
564.077	370.19
564.289	394.19
564.501	392.19
564.713	400.19
564.925	421.19
565.137	404.19
565.349	413.19
565.561	435.19
565.773	442.19
565.985	433.19
566.197	449.19
566.408	472.19
566.62	469.19
566.832	509.19
567.044	512.19
567.255	507.19
567.467	516.19
567.679	524.19
567.891	536.19
568.102	537.19
568.314	523.19
568.526	510.19
568.737	481.19
568.949	454.19
569.161	429.19
569.372	424.19
569.584	416.19
569.795	413.19
570.007	415.19
570.218	429.19
570.43	424.19
570.641	398.19
570.853	378.19
571.064	387.19
571.276	382.19
571.487	382.19
571.698	375.19
571.91	361.19
572.121	363.19
572.333	350.19
572.544	326.19
572.755	336.19
572.966	334.19
573.178	340.19
573.389	321.19
573.6	320.19
573.811	325.19
574.023	323.19
574.234	328.19
574.445	352.19
574.656	304.19
574.867	315.19
575.078	330.19
575.289	327.19
575.501	321.19
575.712	330.19
575.923	323.19
576.134	334.19
576.345	329.19
576.556	313.19
576.767	327.19
576.978	320.19
577.188	316.19
577.399	315.19
577.61	308.19
577.821	323.19
578.032	322.19
578.243	333.19
578.454	539.19
578.665	397.19
578.875	322.19
579.086	315.19
579.297	305.19
579.508	297.19
579.718	291.19
579.929	301.19
580.14	310.19
580.35	308.19
580.561	298.19
580.772	282.19
580.982	292.19
581.193	275.19
581.403	304.19
581.614	296.19
581.825	296.19
582.035	292.19
582.246	295.19
582.456	285.19
582.667	286.19
582.877	270.19
583.087	275.19
583.298	309.19
583.508	287.19
583.719	278.19
583.929	292.19
584.139	280.19
584.35	274.19
584.56	296.19
584.77	278.19
584.981	286.19
585.191	282.19
585.401	285.19
585.611	282.19
585.821	292.19
586.032	283.19
586.242	287.19
586.452	290.19
586.662	280.19
586.872	268.19
587.082	288.19
587.292	283.19
587.502	286.19
587.713	288.19
587.923	288.19
588.133	297.19
588.343	281.19
588.553	278.19
588.762	276.19
588.972	286.19
589.182	287.19
589.392	276.19
589.602	279.19
589.812	290.19
590.022	289.19
590.232	269.19
590.441	290.19
590.651	294.19
590.861	285.19
591.071	270.19
591.281	289.19
591.49	286.19
591.7	288.19
591.91	304.19
592.119	296.19
592.329	302.19
592.539	310.19
592.748	318.19
592.958	307.19
593.167	316.19
593.377	318.19
593.587	324.19
593.796	315.19
594.006	333.19
594.215	318.19
594.424	326.19
594.634	316.19
594.843	312.19
595.053	316.19
595.262	289.19
595.472	288.19
595.681	284.19
595.89	288.19
596.1	284.19
596.309	276.19
596.518	260.19
596.727	276.19
596.937	278.19
597.146	257.19
597.355	277.19
597.564	267.19
597.774	263.19
597.983	262.19
598.192	270.19
598.401	259.19
598.61	250.19
598.819	266.19
599.028	260.19
599.237	244.19
599.446	247.19
599.655	262.19
599.864	264.19
600.073	252.19
600.282	262.19
600.491	241.19
600.7	250.19
600.909	237.19
601.118	254.19
601.327	264.19
601.536	242.19
601.745	241.19
601.953	257.19
602.162	236.19
602.371	258.19
602.58	248.19
602.789	246.19
602.997	228.19
603.206	236.19
603.415	256.19
603.623	251.19
603.832	234.19
604.041	248.19
604.249	244.19
604.458	246.19
604.666	239.19
604.875	230.19
605.084	240.19
605.292	246.19
605.501	245.19
605.709	235.19
605.918	228.19
606.126	228.19
606.334	237.19
606.543	238.19
606.751	224.19
606.96	224.19
607.168	229.19
607.376	234.19
607.585	212.19
607.793	226.19
608.001	232.19
608.21	226.19
608.418	232.19
608.626	229.19
608.834	231.19
609.043	216.19
609.251	237.19
609.459	249.19
609.667	225.19
609.875	239.19
610.083	212.19
610.291	206.19
610.499	235.19
610.707	228.19
610.916	227.19
611.124	244.19
611.332	238.19
611.54	242.19
611.748	230.19
611.955	229.19
612.163	217.19
612.371	211.19
612.579	214.19
612.787	201.19
612.995	234.19
613.203	236.19
613.411	235.19
613.618	232.19
613.826	199.19
614.034	214.19
614.242	224.19
614.449	218.19
614.657	208.19
614.865	213.19
615.072	211.19
615.28	231.19
615.488	225.19
615.695	211.19
615.903	235.19
616.111	209.19
616.318	221.19
616.526	204.19
616.733	227.19
616.941	231.19
617.148	224.19
617.356	219.19
617.563	234.19
617.771	236.19
617.978	210.19
618.185	222.19
618.393	203.19
618.6	230.19
618.807	229.19
619.015	222.19
619.222	217.19
619.429	194.19
619.637	211.19
619.844	224.19
620.051	197.19
620.258	216.19
620.466	213.19
620.673	214.19
620.88	212.19
621.087	213.19
621.294	231.19
621.501	211.19
621.708	210.19
621.915	210.19
622.122	212.19
622.329	235.19
622.536	203.19
622.743	214.19
622.95	198.19
623.157	200.19
623.364	215.19
623.571	220.19
623.778	222.19
623.985	203.19
624.192	186.19
624.399	205.19
624.606	203.19
624.812	206.19
625.019	213.19
625.226	190.19
625.433	197.19
625.639	212.19
625.846	186.19
626.053	212.19
626.259	206.19
626.466	196.19
626.673	177.19
626.879	202.19
627.086	206.19
627.293	195.19
627.499	190.19
627.706	196.19
627.912	193.19
628.119	197.19
628.325	207.19
628.532	204.19
628.738	181.19
628.945	197.19
629.151	185.19
629.357	188.19
629.564	202.19
629.77	194.19
629.976	181.19
630.183	182.19
630.389	180.19
630.595	176.19
630.802	201.19
631.008	178.19
631.214	195.19
631.42	190.19
631.627	193.19
631.833	192.19
632.039	165.19
632.245	195.19
632.451	186.19
632.657	168.19
632.863	175.19
633.069	181.19
633.275	192.19
633.481	170.19
633.688	173.19
633.893	172.19
634.099	179.19
634.305	156.19
634.511	166.19
634.717	178.19
634.923	190.19
635.129	182.19
635.335	185.19
635.541	171.19
635.747	176.19
635.952	179.19
636.158	165.19
636.364	171.19
636.57	180.19
636.775	171.19
636.981	173.19
637.187	190.19
637.392	164.19
637.598	185.19
637.804	185.19
638.009	173.19
638.215	166.19
638.421	178.19
638.626	163.19
638.832	182.19
639.037	180.19
639.243	168.19
639.448	173.19
639.654	156.19
639.859	178.19
640.065	160.19
640.27	179.19
640.475	170.19
640.681	148.19
640.886	153.19
641.091	171.19
641.297	148.19
641.502	148.19
641.707	180.19
641.913	168.19
642.118	169.19
642.323	169.19
642.528	165.19
642.733	161.19
642.939	168.19
643.144	164.19
643.349	161.19
643.554	164.19
643.759	176.19
643.964	158.19
644.169	178.19
644.374	165.19
644.579	156.19
644.784	163.19
644.989	158.19
645.194	166.19
645.399	157.19
645.604	155.19
645.809	166.19
646.014	150.19
646.219	154.19
646.423	155.19
646.628	154.19
646.833	149.19
647.038	165.19
647.243	157.19
647.447	162.19
647.652	153.19
647.857	160.19
648.062	156.19
648.266	157.19
648.471	174.19
648.676	170.19
648.88	163.19
649.085	171.19
649.289	163.19
649.494	179.19
649.698	205.19
649.903	186.19
650.107	168.19
650.312	162.19
650.516	157.19
650.721	162.19
650.925	147.19
651.13	163.19
651.334	148.19
651.539	154.19
651.743	153.19
651.947	173.19
652.152	155.19
652.356	150.19
652.56	130.19
652.764	150.19
652.969	136.19
653.173	140.19
653.377	122.19
653.581	126.19
653.785	133.19
653.99	128.19
654.194	138.19
654.398	137.19
654.602	132.19
654.806	130.19
655.01	126.19
655.214	134.19
655.418	133.19
655.622	140.19
655.826	122.19
656.03	132.19
656.234	130.19
656.438	145.19
656.642	145.19
656.846	121.19
657.049	120.19
657.253	118.19
657.457	132.19
657.661	124.19
657.865	122.19
658.068	120.19
658.272	104.19
658.476	96.19
658.68	107.19
658.883	101.19
659.087	107.19
659.291	95.19
659.494	92.19
659.698	92.19
659.901	104.19
660.105	90.19
660.309	91.19
660.512	98.19
660.716	101.19
660.919	94.19
661.123	99.19
661.326	82.19
661.53	101.19
661.733	90.19
661.936	97.19
662.14	104.19
662.343	83.19
662.546	88.19
662.75	85.19
662.953	78.19
663.156	84.19
663.36	83.19
663.563	82.19
663.766	82.19
663.969	96.19
664.173	82.19
664.376	77.19
664.579	88.19
664.782	87.19
664.985	90.19
665.188	93.19
665.391	83.19
665.594	93.19
665.797	89.19
666	88.19
666.203	84.19
666.406	86.19
666.609	79.19
666.812	105.19
667.015	96.19
667.218	90.19
667.421	74.19
667.624	71.19
667.827	74.19
668.03	69.19
668.232	85.19
668.435	88.19
668.638	84.19
668.841	76.19
669.043	84.19
669.246	74.19
669.449	86.19
669.651	78.19
669.854	99.19
670.057	80.19
670.259	87.19
670.462	77.19
670.665	75.19
670.867	85.19
671.07	91.19
671.272	84.19
671.475	77.19
671.677	77.19
671.88	78.19
672.082	90.19
672.284	81.19
672.487	88.19
672.689	73.19
672.892	81.19
