Data from 1986.PennyLincolnUp.Lamp.En5.5.200Scan.071819.P2_HRD10591_17-10-38-975.txt Node
Date: Thu Jul 18 17:10:38 EDT 2019
User: cochatt
Spectrometer: HR+D1059
Trigger mode: 1
Integration Time (sec): 1.000000E-1
Scans to average: 1
Electric dark correction enabled: true
Nonlinearity correction enabled: false
Boxcar width: 0
XAxis mode: Wavelengths
Number of Pixels in Spectrum: 2048
>>>>>Begin Spectral Data<<<<<
223.165	-13.5
223.4	-13.5
223.635	-13.5
223.869	-14.5
224.104	-17.5
224.338	-20.5
224.573	-22.5
224.808	-19.5
225.042	1.5
225.277	-8.5
225.511	3.5
225.746	2.5
225.98	14.5
226.215	14.5
226.449	28.5
226.683	11.5
226.918	6.5
227.152	33.5
227.387	35.5
227.621	54.5
227.856	46.5
228.09	40.5
228.324	65.5
228.559	62.5
228.793	66.5
229.027	97.5
229.262	113.5
229.496	132.5
229.73	150.5
229.964	154.5
230.199	118.5
230.433	124.5
230.667	124.5
230.901	119.5
231.136	107.5
231.37	106.5
231.604	108.5
231.838	117.5
232.072	113.5
232.306	117.5
232.541	107.5
232.775	105.5
233.009	114.5
233.243	120.5
233.477	130.5
233.711	112.5
233.945	130.5
234.179	126.5
234.413	117.5
234.647	115.5
234.881	95.5
235.115	118.5
235.349	113.5
235.583	124.5
235.817	114.5
236.051	136.5
236.285	131.5
236.519	134.5
236.753	139.5
236.987	133.5
237.221	172.5
237.455	251.5
237.689	179.5
237.922	139.5
238.156	128.5
238.39	137.5
238.624	125.5
238.858	129.5
239.091	121.5
239.325	124.5
239.559	126.5
239.793	121.5
240.027	127.5
240.26	150.5
240.494	165.5
240.728	152.5
240.961	141.5
241.195	142.5
241.429	138.5
241.662	144.5
241.896	133.5
242.13	137.5
242.363	143.5
242.597	135.5
242.83	133.5
243.064	152.5
243.298	147.5
243.531	135.5
243.765	150.5
243.998	133.5
244.232	133.5
244.465	150.5
244.699	153.5
244.932	131.5
245.166	130.5
245.399	157.5
245.633	143.5
245.866	147.5
246.099	151.5
246.333	143.5
246.566	153.5
246.8	164.5
247.033	147.5
247.266	148.5
247.5	159.5
247.733	172.5
247.966	179.5
248.2	182.5
248.433	177.5
248.666	185.5
248.899	183.5
249.133	216.5
249.366	207.5
249.599	205.5
249.832	181.5
250.066	186.5
250.299	195.5
250.532	200.5
250.765	212.5
250.998	225.5
251.231	224.5
251.465	242.5
251.698	217.5
251.931	204.5
252.164	201.5
252.397	219.5
252.63	214.5
252.863	210.5
253.096	231.5
253.329	259.5
253.562	236.5
253.795	221.5
254.028	244.5
254.261	217.5
254.494	222.5
254.727	278.5
254.96	312.5
255.193	282.5
255.426	263.5
255.659	261.5
255.892	258.5
256.124	234.5
256.357	250.5
256.59	237.5
256.823	230.5
257.056	215.5
257.289	209.5
257.521	209.5
257.754	215.5
257.987	213.5
258.22	232.5
258.452	216.5
258.685	220.5
258.918	216.5
259.151	211.5
259.383	245.5
259.616	234.5
259.849	246.5
260.081	247.5
260.314	256.5
260.547	267.5
260.779	262.5
261.012	236.5
261.244	238.5
261.477	237.5
261.71	228.5
261.942	228.5
262.175	228.5
262.407	238.5
262.64	221.5
262.872	194.5
263.105	211.5
263.337	209.5
263.57	210.5
263.802	205.5
264.035	221.5
264.267	209.5
264.499	196.5
264.732	199.5
264.964	216.5
265.197	204.5
265.429	209.5
265.661	208.5
265.894	194.5
266.126	199.5
266.358	219.5
266.591	218.5
266.823	211.5
267.055	223.5
267.287	241.5
267.52	219.5
267.752	232.5
267.984	227.5
268.216	211.5
268.448	234.5
268.681	220.5
268.913	248.5
269.145	252.5
269.377	275.5
269.609	278.5
269.841	261.5
270.073	268.5
270.306	310.5
270.538	306.5
270.77	321.5
271.002	308.5
271.234	307.5
271.466	292.5
271.698	307.5
271.93	328.5
272.162	314.5
272.394	326.5
272.626	316.5
272.858	303.5
273.09	267.5
273.322	287.5
273.553	280.5
273.785	263.5
274.017	263.5
274.249	263.5
274.481	269.5
274.713	272.5
274.945	259.5
275.176	274.5
275.408	266.5
275.64	258.5
275.872	261.5
276.104	267.5
276.335	277.5
276.567	286.5
276.799	279.5
277.031	311.5
277.262	327.5
277.494	319.5
277.726	307.5
277.957	299.5
278.189	291.5
278.421	269.5
278.652	283.5
278.884	278.5
279.115	265.5
279.347	261.5
279.579	256.5
279.81	232.5
280.042	260.5
280.273	253.5
280.505	254.5
280.736	246.5
280.968	265.5
281.199	254.5
281.431	253.5
281.662	256.5
281.894	252.5
282.125	281.5
282.356	282.5
282.588	302.5
282.819	292.5
283.051	255.5
283.282	258.5
283.513	260.5
283.745	260.5
283.976	252.5
284.207	264.5
284.439	273.5
284.67	257.5
284.901	267.5
285.132	259.5
285.364	259.5
285.595	260.5
285.826	247.5
286.057	267.5
286.288	244.5
286.52	275.5
286.751	263.5
286.982	264.5
287.213	266.5
287.444	272.5
287.675	258.5
287.906	282.5
288.138	287.5
288.369	281.5
288.6	308.5
288.831	281.5
289.062	286.5
289.293	274.5
289.524	269.5
289.755	264.5
289.986	277.5
290.217	271.5
290.448	261.5
290.679	270.5
290.91	269.5
291.141	273.5
291.371	248.5
291.602	257.5
291.833	270.5
292.064	270.5
292.295	264.5
292.526	257.5
292.757	277.5
292.987	245.5
293.218	252.5
293.449	275.5
293.68	281.5
293.91	286.5
294.141	267.5
294.372	276.5
294.603	271.5
294.833	267.5
295.064	265.5
295.295	272.5
295.525	262.5
295.756	276.5
295.987	287.5
296.217	336.5
296.448	326.5
296.679	294.5
296.909	263.5
297.14	257.5
297.37	282.5
297.601	272.5
297.831	291.5
298.062	272.5
298.292	275.5
298.523	291.5
298.753	291.5
298.984	291.5
299.214	286.5
299.445	287.5
299.675	300.5
299.905	301.5
300.136	292.5
300.366	280.5
300.597	266.5
300.827	289.5
301.057	290.5
301.288	270.5
301.518	300.5
301.748	303.5
301.979	294.5
302.209	294.5
302.439	305.5
302.669	307.5
302.9	310.5
303.13	308.5
303.36	334.5
303.59	306.5
303.82	318.5
304.051	316.5
304.281	310.5
304.511	307.5
304.741	296.5
304.971	286.5
305.201	306.5
305.431	291.5
305.661	296.5
305.891	294.5
306.121	303.5
306.352	323.5
306.582	299.5
306.812	313.5
307.042	317.5
307.272	305.5
307.502	322.5
307.731	317.5
307.961	315.5
308.191	309.5
308.421	330.5
308.651	303.5
308.881	299.5
309.111	326.5
309.341	312.5
309.571	328.5
309.8	339.5
310.03	339.5
310.26	363.5
310.49	353.5
310.72	349.5
310.949	383.5
311.179	362.5
311.409	349.5
311.639	364.5
311.868	355.5
312.098	346.5
312.328	369.5
312.557	367.5
312.787	378.5
313.017	407.5
313.246	381.5
313.476	362.5
313.706	354.5
313.935	367.5
314.165	370.5
314.394	391.5
314.624	381.5
314.853	351.5
315.083	359.5
315.312	359.5
315.542	348.5
315.771	361.5
316.001	354.5
316.23	361.5
316.46	354.5
316.689	327.5
316.919	345.5
317.148	370.5
317.377	352.5
317.607	361.5
317.836	374.5
318.065	339.5
318.295	365.5
318.524	356.5
318.753	353.5
318.983	358.5
319.212	341.5
319.441	364.5
319.67	382.5
319.9	379.5
320.129	378.5
320.358	355.5
320.587	373.5
320.816	373.5
321.046	383.5
321.275	385.5
321.504	375.5
321.733	378.5
321.962	377.5
322.191	403.5
322.42	417.5
322.649	426.5
322.878	453.5
323.108	464.5
323.337	488.5
323.566	524.5
323.795	558.5
324.024	618.5
324.253	747.5
324.482	1082.5
324.71	1643.5
324.939	2342.5
325.168	2037.5
325.397	1072.5
325.626	725.5
325.855	578.5
326.084	525.5
326.313	523.5
326.542	515.5
326.77	564.5
326.999	677.5
327.228	935.5
327.457	1411.5
327.686	1796.5
327.914	1250.5
328.143	783.5
328.372	674.5
328.6	633.5
328.829	564.5
329.058	591.5
329.287	610.5
329.515	553.5
329.744	534.5
329.972	511.5
330.201	536.5
330.43	578.5
330.658	625.5
330.887	646.5
331.115	640.5
331.344	518.5
331.572	466.5
331.801	485.5
332.03	470.5
332.258	465.5
332.486	424.5
332.715	403.5
332.943	449.5
333.172	419.5
333.4	418.5
333.629	425.5
333.857	446.5
334.085	467.5
334.314	475.5
334.542	487.5
334.771	531.5
334.999	457.5
335.227	449.5
335.455	439.5
335.684	410.5
335.912	406.5
336.14	399.5
336.369	417.5
336.597	427.5
336.825	424.5
337.053	383.5
337.281	410.5
337.51	397.5
337.738	402.5
337.966	418.5
338.194	407.5
338.422	410.5
338.65	399.5
338.878	385.5
339.106	404.5
339.334	393.5
339.562	361.5
339.79	391.5
340.018	383.5
340.246	394.5
340.474	394.5
340.702	414.5
340.93	406.5
341.158	401.5
341.386	398.5
341.614	405.5
341.842	387.5
342.07	386.5
342.298	378.5
342.526	385.5
342.754	364.5
342.981	357.5
343.209	340.5
343.437	373.5
343.665	369.5
343.893	373.5
344.12	382.5
344.348	389.5
344.576	397.5
344.804	409.5
345.031	430.5
345.259	411.5
345.487	427.5
345.714	387.5
345.942	376.5
346.17	386.5
346.397	378.5
346.625	369.5
346.853	378.5
347.08	372.5
347.308	400.5
347.535	386.5
347.763	399.5
347.99	406.5
348.218	390.5
348.445	387.5
348.673	386.5
348.9	370.5
349.128	389.5
349.355	369.5
349.583	389.5
349.81	366.5
350.037	374.5
350.265	377.5
350.492	371.5
350.72	366.5
350.947	346.5
351.174	391.5
351.402	383.5
351.629	393.5
351.856	398.5
352.083	410.5
352.311	408.5
352.538	400.5
352.765	430.5
352.992	395.5
353.22	381.5
353.447	360.5
353.674	354.5
353.901	366.5
354.128	366.5
354.355	370.5
354.583	341.5
354.81	355.5
355.037	349.5
355.264	345.5
355.491	352.5
355.718	331.5
355.945	363.5
356.172	342.5
356.399	359.5
356.626	342.5
356.853	336.5
357.08	369.5
357.307	338.5
357.534	353.5
357.761	343.5
357.988	334.5
358.215	359.5
358.441	345.5
358.668	353.5
358.895	335.5
359.122	347.5
359.349	370.5
359.576	410.5
359.802	404.5
360.029	418.5
360.256	463.5
360.483	429.5
360.709	375.5
360.936	406.5
361.163	392.5
361.39	371.5
361.616	393.5
361.843	378.5
362.07	389.5
362.296	398.5
362.523	391.5
362.749	376.5
362.976	383.5
363.203	386.5
363.429	387.5
363.656	361.5
363.882	353.5
364.109	358.5
364.335	364.5
364.562	353.5
364.788	345.5
365.015	366.5
365.241	367.5
365.468	365.5
365.694	361.5
365.92	402.5
366.147	381.5
366.373	358.5
366.599	341.5
366.826	349.5
367.052	337.5
367.278	334.5
367.505	349.5
367.731	365.5
367.957	350.5
368.184	354.5
368.41	358.5
368.636	375.5
368.862	373.5
369.089	344.5
369.315	374.5
369.541	360.5
369.767	348.5
369.993	354.5
370.219	356.5
370.445	340.5
370.672	360.5
370.898	334.5
371.124	336.5
371.35	345.5
371.576	356.5
371.802	346.5
372.028	345.5
372.254	362.5
372.48	362.5
372.706	340.5
372.932	341.5
373.158	366.5
373.384	360.5
373.61	346.5
373.835	349.5
374.061	331.5
374.287	354.5
374.513	357.5
374.739	369.5
374.965	350.5
375.191	347.5
375.416	351.5
375.642	313.5
375.868	352.5
376.094	340.5
376.319	356.5
376.545	357.5
376.771	341.5
376.997	341.5
377.222	343.5
377.448	350.5
377.674	334.5
377.899	338.5
378.125	328.5
378.35	347.5
378.576	351.5
378.802	327.5
379.027	326.5
379.253	323.5
379.478	327.5
379.704	343.5
379.929	349.5
380.155	347.5
380.38	343.5
380.606	346.5
380.831	344.5
381.057	337.5
381.282	341.5
381.507	346.5
381.733	358.5
381.958	341.5
382.184	348.5
382.409	369.5
382.634	344.5
382.86	355.5
383.085	346.5
383.31	354.5
383.535	342.5
383.761	344.5
383.986	369.5
384.211	368.5
384.436	344.5
384.662	346.5
384.887	352.5
385.112	370.5
385.337	351.5
385.562	355.5
385.787	366.5
386.013	360.5
386.238	390.5
386.463	366.5
386.688	350.5
386.913	348.5
387.138	356.5
387.363	341.5
387.588	361.5
387.813	355.5
388.038	379.5
388.263	356.5
388.488	345.5
388.713	371.5
388.938	370.5
389.163	379.5
389.387	372.5
389.612	366.5
389.837	360.5
390.062	366.5
390.287	358.5
390.512	357.5
390.736	366.5
390.961	362.5
391.186	361.5
391.411	373.5
391.636	358.5
391.86	373.5
392.085	386.5
392.31	347.5
392.534	373.5
392.759	373.5
392.984	371.5
393.208	363.5
393.433	363.5
393.658	345.5
393.882	354.5
394.107	363.5
394.331	354.5
394.556	358.5
394.78	354.5
395.005	362.5
395.229	364.5
395.454	344.5
395.678	370.5
395.903	373.5
396.127	409.5
396.352	421.5
396.576	402.5
396.801	401.5
397.025	368.5
397.249	378.5
397.474	372.5
397.698	375.5
397.922	398.5
398.147	408.5
398.371	423.5
398.595	406.5
398.82	374.5
399.044	406.5
399.268	430.5
399.492	420.5
399.717	435.5
399.941	481.5
400.165	494.5
400.389	506.5
400.613	476.5
400.837	420.5
401.062	420.5
401.286	407.5
401.51	407.5
401.734	407.5
401.958	408.5
402.182	431.5
402.406	420.5
402.63	425.5
402.854	411.5
403.078	436.5
403.302	418.5
403.526	406.5
403.75	425.5
403.974	399.5
404.198	411.5
404.422	434.5
404.645	437.5
404.869	434.5
405.093	461.5
405.317	492.5
405.541	536.5
405.765	490.5
405.988	442.5
406.212	446.5
406.436	495.5
406.66	480.5
406.883	473.5
407.107	487.5
407.331	519.5
407.555	571.5
407.778	572.5
408.002	528.5
408.226	488.5
408.449	458.5
408.673	470.5
408.896	499.5
409.12	528.5
409.344	504.5
409.567	461.5
409.791	431.5
410.014	439.5
410.238	428.5
410.461	429.5
410.685	420.5
410.908	453.5
411.132	473.5
411.355	520.5
411.578	504.5
411.802	442.5
412.025	423.5
412.249	433.5
412.472	451.5
412.695	488.5
412.919	461.5
413.142	425.5
413.365	427.5
413.589	410.5
413.812	386.5
414.035	405.5
414.258	386.5
414.482	395.5
414.705	383.5
414.928	395.5
415.151	378.5
415.374	391.5
415.597	404.5
415.821	360.5
416.044	391.5
416.267	417.5
416.49	409.5
416.713	398.5
416.936	405.5
417.159	388.5
417.382	433.5
417.605	409.5
417.828	419.5
418.051	431.5
418.274	402.5
418.497	409.5
418.72	399.5
418.943	409.5
419.166	413.5
419.389	434.5
419.611	413.5
419.834	434.5
420.057	431.5
420.28	414.5
420.503	412.5
420.726	424.5
420.948	452.5
421.171	483.5
421.394	512.5
421.617	463.5
421.839	430.5
422.062	446.5
422.285	462.5
422.507	496.5
422.73	575.5
422.953	547.5
423.175	509.5
423.398	459.5
423.621	474.5
423.843	463.5
424.066	488.5
424.288	459.5
424.511	479.5
424.733	564.5
424.956	615.5
425.178	609.5
425.401	579.5
425.623	613.5
425.846	516.5
426.068	486.5
426.291	473.5
426.513	481.5
426.735	482.5
426.958	547.5
427.18	611.5
427.402	719.5
427.625	791.5
427.847	729.5
428.069	633.5
428.292	523.5
428.514	490.5
428.736	475.5
428.958	438.5
429.181	445.5
429.403	457.5
429.625	468.5
429.847	482.5
430.069	562.5
430.292	557.5
430.514	487.5
430.736	463.5
430.958	423.5
431.18	425.5
431.402	425.5
431.624	393.5
431.846	411.5
432.068	392.5
432.29	421.5
432.512	395.5
432.734	424.5
432.956	411.5
433.178	428.5
433.4	419.5
433.622	398.5
433.844	405.5
434.066	425.5
434.287	415.5
434.509	409.5
434.731	428.5
434.953	430.5
435.175	442.5
435.397	470.5
435.618	489.5
435.84	524.5
436.062	604.5
436.284	691.5
436.505	585.5
436.727	492.5
436.949	464.5
437.17	446.5
437.392	469.5
437.614	481.5
437.835	516.5
438.057	573.5
438.278	716.5
438.5	687.5
438.721	739.5
438.943	699.5
439.165	558.5
439.386	538.5
439.608	523.5
439.829	482.5
440.05	519.5
440.272	568.5
440.493	551.5
440.715	503.5
440.936	452.5
441.158	457.5
441.379	467.5
441.6	469.5
441.822	474.5
442.043	540.5
442.264	594.5
442.486	635.5
442.707	555.5
442.928	555.5
443.149	517.5
443.371	529.5
443.592	578.5
443.813	655.5
444.034	710.5
444.255	621.5
444.476	521.5
444.698	475.5
444.919	485.5
445.14	540.5
445.361	527.5
445.582	534.5
445.803	612.5
446.024	711.5
446.245	700.5
446.466	628.5
446.687	535.5
446.908	508.5
447.129	464.5
447.35	448.5
447.571	443.5
447.792	450.5
448.013	468.5
448.234	486.5
448.455	522.5
448.675	604.5
448.896	739.5
449.117	622.5
449.338	585.5
449.559	679.5
449.779	773.5
450	628.5
450.221	526.5
450.442	481.5
450.662	467.5
450.883	466.5
451.104	479.5
451.324	459.5
451.545	451.5
451.766	428.5
451.986	404.5
452.207	408.5
452.428	402.5
452.648	402.5
452.869	421.5
453.089	413.5
453.31	424.5
453.53	415.5
453.751	413.5
453.971	413.5
454.192	437.5
454.412	432.5
454.633	394.5
454.853	403.5
455.073	396.5
455.294	442.5
455.514	524.5
455.734	492.5
455.955	394.5
456.175	399.5
456.395	370.5
456.616	364.5
456.836	369.5
457.056	372.5
457.276	359.5
457.497	379.5
457.717	372.5
457.937	389.5
458.157	393.5
458.377	385.5
458.598	424.5
458.818	483.5
459.038	556.5
459.258	581.5
459.478	484.5
459.698	453.5
459.918	392.5
460.138	398.5
460.358	415.5
460.578	398.5
460.798	400.5
461.018	407.5
461.238	411.5
461.458	382.5
461.678	399.5
461.898	379.5
462.118	407.5
462.338	413.5
462.558	430.5
462.777	420.5
462.997	420.5
463.217	420.5
463.437	444.5
463.657	417.5
463.876	412.5
464.096	421.5
464.316	413.5
464.536	449.5
464.755	442.5
464.975	446.5
465.195	490.5
465.414	595.5
465.634	511.5
465.854	466.5
466.073	444.5
466.293	398.5
466.512	389.5
466.732	421.5
466.951	386.5
467.171	386.5
467.391	383.5
467.61	416.5
467.829	436.5
468.049	429.5
468.268	389.5
468.488	394.5
468.707	390.5
468.927	399.5
469.146	395.5
469.365	378.5
469.585	359.5
469.804	395.5
470.023	425.5
470.243	408.5
470.462	421.5
470.681	433.5
470.901	426.5
471.12	403.5
471.339	410.5
471.558	419.5
471.777	417.5
471.997	385.5
472.216	409.5
472.435	477.5
472.654	430.5
472.873	413.5
473.092	418.5
473.311	422.5
473.53	408.5
473.749	424.5
473.968	466.5
474.187	577.5
474.406	598.5
474.625	464.5
474.844	425.5
475.063	433.5
475.282	418.5
475.501	416.5
475.72	415.5
475.939	418.5
476.158	409.5
476.377	419.5
476.596	433.5
476.814	433.5
477.033	450.5
477.252	425.5
477.471	416.5
477.69	445.5
477.908	450.5
478.127	451.5
478.346	453.5
478.564	422.5
478.783	464.5
479.002	456.5
479.22	473.5
479.439	478.5
479.658	516.5
479.876	511.5
480.095	502.5
480.313	524.5
480.532	508.5
480.751	491.5
480.969	513.5
481.188	567.5
481.406	612.5
481.624	538.5
481.843	518.5
482.061	502.5
482.28	511.5
482.498	524.5
482.717	488.5
482.935	485.5
483.153	487.5
483.372	478.5
483.59	498.5
483.808	490.5
484.027	510.5
484.245	495.5
484.463	491.5
484.681	490.5
484.9	484.5
485.118	493.5
485.336	505.5
485.554	482.5
485.772	498.5
485.99	486.5
486.209	503.5
486.427	490.5
486.645	521.5
486.863	519.5
487.081	544.5
487.299	530.5
487.517	541.5
487.735	531.5
487.953	527.5
488.171	509.5
488.389	532.5
488.607	545.5
488.825	527.5
489.043	529.5
489.261	537.5
489.479	544.5
489.696	547.5
489.914	531.5
490.132	550.5
490.35	540.5
490.568	564.5
490.786	569.5
491.003	575.5
491.221	610.5
491.439	609.5
491.657	610.5
491.874	592.5
492.092	612.5
492.31	634.5
492.527	620.5
492.745	620.5
492.963	633.5
493.18	626.5
493.398	622.5
493.615	629.5
493.833	614.5
494.05	615.5
494.268	646.5
494.485	631.5
494.703	649.5
494.92	655.5
495.138	651.5
495.355	638.5
495.573	651.5
495.79	639.5
496.008	644.5
496.225	617.5
496.442	625.5
496.66	639.5
496.877	649.5
497.094	637.5
497.312	637.5
497.529	656.5
497.746	651.5
497.963	651.5
498.181	651.5
498.398	686.5
498.615	666.5
498.832	705.5
499.049	653.5
499.267	709.5
499.484	691.5
499.701	731.5
499.918	722.5
500.135	728.5
500.352	761.5
500.569	763.5
500.786	784.5
501.003	777.5
501.22	767.5
501.437	761.5
501.654	750.5
501.871	774.5
502.088	739.5
502.305	710.5
502.522	694.5
502.739	679.5
502.956	672.5
503.172	656.5
503.389	647.5
503.606	665.5
503.823	647.5
504.04	645.5
504.256	652.5
504.473	638.5
504.69	612.5
504.907	633.5
505.123	610.5
505.34	623.5
505.557	610.5
505.773	631.5
505.99	625.5
506.207	627.5
506.423	613.5
506.64	616.5
506.856	595.5
507.073	612.5
507.289	609.5
507.506	614.5
507.722	641.5
507.939	650.5
508.155	643.5
508.372	602.5
508.588	575.5
508.805	576.5
509.021	590.5
509.238	617.5
509.454	628.5
509.67	611.5
509.887	599.5
510.103	604.5
510.319	634.5
510.536	730.5
510.752	1282.5
510.968	1035.5
511.184	637.5
511.401	584.5
511.617	593.5
511.833	566.5
512.049	561.5
512.265	559.5
512.481	569.5
512.698	574.5
512.914	551.5
513.13	571.5
513.346	569.5
513.562	582.5
513.778	565.5
513.994	581.5
514.21	580.5
514.426	622.5
514.642	667.5
514.858	702.5
515.074	765.5
515.29	962.5
515.506	1452.5
515.721	1169.5
515.937	744.5
516.153	653.5
516.369	620.5
516.585	604.5
516.801	591.5
517.016	583.5
517.232	561.5
517.448	550.5
517.664	547.5
517.879	567.5
518.095	558.5
518.311	574.5
518.527	563.5
518.742	548.5
518.958	549.5
519.173	570.5
519.389	591.5
519.605	577.5
519.82	590.5
520.036	588.5
520.251	620.5
520.467	643.5
520.682	645.5
520.898	643.5
521.113	679.5
521.329	745.5
521.544	879.5
521.76	1124.5
521.975	1929.5
522.19	1911.5
522.406	1011.5
522.621	732.5
522.836	637.5
523.052	586.5
523.267	577.5
523.482	545.5
523.698	534.5
523.913	519.5
524.128	559.5
524.343	502.5
524.559	514.5
524.774	534.5
524.989	486.5
525.204	523.5
525.419	510.5
525.634	502.5
525.849	483.5
526.064	481.5
526.28	449.5
526.495	449.5
526.71	452.5
526.925	457.5
527.14	463.5
527.355	451.5
527.57	458.5
527.785	452.5
527.999	445.5
528.214	456.5
528.429	458.5
528.644	439.5
528.859	451.5
529.074	458.5
529.289	485.5
529.503	566.5
529.718	561.5
529.933	506.5
530.148	477.5
530.363	467.5
530.577	456.5
530.792	439.5
531.007	449.5
531.221	448.5
531.436	436.5
531.651	425.5
531.865	426.5
532.08	419.5
532.295	442.5
532.509	424.5
532.724	447.5
532.938	440.5
533.153	456.5
533.367	419.5
533.582	437.5
533.796	429.5
534.011	434.5
534.225	416.5
534.44	424.5
534.654	414.5
534.868	419.5
535.083	432.5
535.297	438.5
535.511	449.5
535.726	432.5
535.94	455.5
536.154	411.5
536.369	413.5
536.583	422.5
536.797	414.5
537.011	415.5
537.225	400.5
537.44	404.5
537.654	411.5
537.868	385.5
538.082	410.5
538.296	409.5
538.51	413.5
538.724	403.5
538.938	417.5
539.153	418.5
539.367	440.5
539.581	430.5
539.795	411.5
540.009	434.5
540.222	400.5
540.436	417.5
540.65	408.5
540.864	410.5
541.078	415.5
541.292	422.5
541.506	419.5
541.72	400.5
541.934	419.5
542.147	412.5
542.361	403.5
542.575	406.5
542.789	411.5
543.002	408.5
543.216	382.5
543.43	411.5
543.644	401.5
543.857	417.5
544.071	393.5
544.285	417.5
544.498	409.5
544.712	393.5
544.925	405.5
545.139	377.5
545.352	403.5
545.566	396.5
545.779	387.5
545.993	398.5
546.206	389.5
546.42	401.5
546.633	380.5
546.847	377.5
547.06	376.5
547.274	383.5
547.487	395.5
547.7	398.5
547.914	388.5
548.127	381.5
548.34	375.5
548.554	377.5
548.767	375.5
548.98	379.5
549.193	375.5
549.407	365.5
549.62	385.5
549.833	359.5
550.046	386.5
550.259	371.5
550.473	382.5
550.686	370.5
550.899	370.5
551.112	372.5
551.325	397.5
551.538	372.5
551.751	366.5
551.964	364.5
552.177	373.5
552.39	375.5
552.603	387.5
552.816	369.5
553.029	375.5
553.242	372.5
553.455	388.5
553.667	397.5
553.88	407.5
554.093	387.5
554.306	382.5
554.519	386.5
554.732	375.5
554.944	365.5
555.157	377.5
555.37	345.5
555.583	360.5
555.795	359.5
556.008	334.5
556.221	340.5
556.433	363.5
556.646	352.5
556.859	365.5
557.071	334.5
557.284	354.5
557.496	347.5
557.709	338.5
557.921	357.5
558.134	347.5
558.346	344.5
558.559	373.5
558.771	334.5
558.984	335.5
559.196	346.5
559.409	341.5
559.621	343.5
559.833	331.5
560.046	311.5
560.258	341.5
560.47	340.5
560.683	350.5
560.895	338.5
561.107	346.5
561.32	346.5
561.532	322.5
561.744	353.5
561.956	316.5
562.168	340.5
562.381	349.5
562.593	343.5
562.805	340.5
563.017	345.5
563.229	353.5
563.441	338.5
563.653	320.5
563.865	343.5
564.077	334.5
564.289	348.5
564.501	338.5
564.713	339.5
564.925	353.5
565.137	356.5
565.349	359.5
565.561	340.5
565.773	335.5
565.985	351.5
566.197	349.5
566.408	372.5
566.62	342.5
566.832	381.5
567.044	388.5
567.255	383.5
567.467	377.5
567.679	415.5
567.891	390.5
568.102	373.5
568.314	382.5
568.526	387.5
568.737	360.5
568.949	371.5
569.161	342.5
569.372	344.5
569.584	353.5
569.795	327.5
570.007	349.5
570.218	394.5
570.43	369.5
570.641	343.5
570.853	324.5
571.064	332.5
571.276	320.5
571.487	322.5
571.698	317.5
571.91	313.5
572.121	310.5
572.333	317.5
572.544	315.5
572.755	301.5
572.966	305.5
573.178	309.5
573.389	303.5
573.6	307.5
573.811	287.5
574.023	295.5
574.234	283.5
574.445	291.5
574.656	307.5
574.867	315.5
575.078	302.5
575.289	300.5
575.501	303.5
575.712	292.5
575.923	289.5
576.134	286.5
576.345	283.5
576.556	305.5
576.767	290.5
576.978	275.5
577.188	277.5
577.399	296.5
577.61	289.5
577.821	301.5
578.032	285.5
578.243	339.5
578.454	617.5
578.665	422.5
578.875	293.5
579.086	284.5
579.297	280.5
579.508	276.5
579.718	287.5
579.929	286.5
580.14	264.5
580.35	293.5
580.561	286.5
580.772	266.5
580.982	262.5
581.193	268.5
581.403	287.5
581.614	254.5
581.825	278.5
582.035	274.5
582.246	278.5
582.456	254.5
582.667	265.5
582.877	267.5
583.087	272.5
583.298	270.5
583.508	272.5
583.719	277.5
583.929	268.5
584.139	262.5
584.35	247.5
584.56	261.5
584.77	268.5
584.981	279.5
585.191	275.5
585.401	273.5
585.611	263.5
585.821	268.5
586.032	275.5
586.242	245.5
586.452	242.5
586.662	260.5
586.872	264.5
587.082	252.5
587.292	251.5
587.502	258.5
587.713	260.5
587.923	261.5
588.133	270.5
588.343	257.5
588.553	259.5
588.762	251.5
588.972	245.5
589.182	280.5
589.392	279.5
589.602	280.5
589.812	276.5
590.022	250.5
590.232	274.5
590.441	265.5
590.651	243.5
590.861	269.5
591.071	250.5
591.281	267.5
591.49	267.5
591.7	259.5
591.91	261.5
592.119	251.5
592.329	269.5
592.539	260.5
592.748	259.5
592.958	252.5
593.167	273.5
593.377	262.5
593.587	253.5
593.796	259.5
594.006	261.5
594.215	262.5
594.424	247.5
594.634	271.5
594.843	256.5
595.053	252.5
595.262	248.5
595.472	265.5
595.681	271.5
595.89	238.5
596.1	237.5
596.309	230.5
596.518	257.5
596.727	245.5
596.937	230.5
597.146	248.5
597.355	241.5
597.564	237.5
597.774	246.5
597.983	238.5
598.192	236.5
598.401	231.5
598.61	228.5
598.819	247.5
599.028	239.5
599.237	237.5
599.446	225.5
599.655	242.5
599.864	243.5
600.073	243.5
600.282	225.5
600.491	222.5
600.7	227.5
600.909	228.5
601.118	230.5
601.327	226.5
601.536	207.5
601.745	221.5
601.953	225.5
602.162	243.5
602.371	210.5
602.58	211.5
602.789	235.5
602.997	224.5
603.206	239.5
603.415	229.5
603.623	217.5
603.832	229.5
604.041	224.5
604.249	211.5
604.458	223.5
604.666	216.5
604.875	219.5
605.084	216.5
605.292	222.5
605.501	208.5
605.709	206.5
605.918	222.5
606.126	233.5
606.334	214.5
606.543	217.5
606.751	222.5
606.96	229.5
607.168	225.5
607.376	216.5
607.585	218.5
607.793	218.5
608.001	219.5
608.21	230.5
608.418	227.5
608.626	225.5
608.834	225.5
609.043	218.5
609.251	214.5
609.459	201.5
609.667	217.5
609.875	223.5
610.083	205.5
610.291	223.5
610.499	227.5
610.707	203.5
610.916	219.5
611.124	222.5
611.332	228.5
611.54	206.5
611.748	217.5
611.955	210.5
612.163	216.5
612.371	217.5
612.579	205.5
612.787	204.5
612.995	207.5
613.203	204.5
613.411	215.5
613.618	214.5
613.826	224.5
614.034	212.5
614.242	202.5
614.449	202.5
614.657	218.5
614.865	217.5
615.072	210.5
615.28	211.5
615.488	193.5
615.695	206.5
615.903	211.5
616.111	198.5
616.318	224.5
616.526	243.5
616.733	210.5
616.941	222.5
617.148	209.5
617.356	213.5
617.563	223.5
617.771	215.5
617.978	201.5
618.185	213.5
618.393	198.5
618.6	202.5
618.807	198.5
619.015	206.5
619.222	207.5
619.429	210.5
619.637	213.5
619.844	201.5
620.051	203.5
620.258	196.5
620.466	196.5
620.673	205.5
620.88	206.5
621.087	184.5
621.294	203.5
621.501	195.5
621.708	206.5
621.915	194.5
622.122	196.5
622.329	194.5
622.536	185.5
622.743	201.5
622.95	197.5
623.157	187.5
623.364	206.5
623.571	203.5
623.778	189.5
623.985	187.5
624.192	196.5
624.399	198.5
624.606	211.5
624.812	195.5
625.019	197.5
625.226	185.5
625.433	196.5
625.639	190.5
625.846	193.5
626.053	195.5
626.259	193.5
626.466	183.5
626.673	189.5
626.879	188.5
627.086	197.5
627.293	198.5
627.499	202.5
627.706	199.5
627.912	200.5
628.119	191.5
628.325	170.5
628.532	192.5
628.738	196.5
628.945	180.5
629.151	175.5
629.357	169.5
629.564	182.5
629.77	172.5
629.976	173.5
630.183	174.5
630.389	174.5
630.595	180.5
630.802	183.5
631.008	172.5
631.214	190.5
631.42	176.5
631.627	171.5
631.833	173.5
632.039	173.5
632.245	172.5
632.451	170.5
632.657	171.5
632.863	164.5
633.069	181.5
633.275	178.5
633.481	159.5
633.688	180.5
633.893	163.5
634.099	171.5
634.305	161.5
634.511	169.5
634.717	169.5
634.923	165.5
635.129	166.5
635.335	167.5
635.541	155.5
635.747	153.5
635.952	170.5
636.158	193.5
636.364	167.5
636.57	165.5
636.775	183.5
636.981	167.5
637.187	170.5
637.392	162.5
637.598	172.5
637.804	166.5
638.009	169.5
638.215	168.5
638.421	168.5
638.626	165.5
638.832	157.5
639.037	157.5
639.243	159.5
639.448	173.5
639.654	179.5
639.859	164.5
640.065	163.5
640.27	165.5
640.475	153.5
640.681	167.5
640.886	163.5
641.091	150.5
641.297	173.5
641.502	159.5
641.707	153.5
641.913	156.5
642.118	160.5
642.323	161.5
642.528	153.5
642.733	165.5
642.939	153.5
643.144	144.5
643.349	151.5
643.554	161.5
643.759	143.5
643.964	142.5
644.169	149.5
644.374	161.5
644.579	158.5
644.784	160.5
644.989	157.5
645.194	157.5
645.399	154.5
645.604	142.5
645.809	155.5
646.014	151.5
646.219	150.5
646.423	153.5
646.628	161.5
646.833	156.5
647.038	143.5
647.243	155.5
647.447	146.5
647.652	153.5
647.857	162.5
648.062	147.5
648.266	150.5
648.471	146.5
648.676	152.5
648.88	154.5
649.085	158.5
649.289	149.5
649.494	164.5
649.698	182.5
649.903	159.5
650.107	150.5
650.312	159.5
650.516	146.5
650.721	136.5
650.925	148.5
651.13	147.5
651.334	138.5
651.539	130.5
651.743	127.5
651.947	135.5
652.152	142.5
652.356	135.5
652.56	144.5
652.764	133.5
652.969	137.5
653.173	139.5
653.377	124.5
653.581	131.5
653.785	137.5
653.99	115.5
654.194	118.5
654.398	125.5
654.602	125.5
654.806	135.5
655.01	123.5
655.214	115.5
655.418	124.5
655.622	131.5
655.826	132.5
656.03	116.5
656.234	119.5
656.438	127.5
656.642	122.5
656.846	114.5
657.049	127.5
657.253	117.5
657.457	126.5
657.661	119.5
657.865	113.5
658.068	118.5
658.272	119.5
658.476	100.5
658.68	101.5
658.883	96.5
659.087	95.5
659.291	103.5
659.494	95.5
659.698	85.5
659.901	95.5
660.105	77.5
660.309	103.5
660.512	89.5
660.716	90.5
660.919	85.5
661.123	99.5
661.326	87.5
661.53	92.5
661.733	89.5
661.936	95.5
662.14	93.5
662.343	91.5
662.546	89.5
662.75	93.5
662.953	89.5
663.156	93.5
663.36	73.5
663.563	86.5
663.766	92.5
663.969	84.5
664.173	78.5
664.376	91.5
664.579	76.5
664.782	95.5
664.985	92.5
665.188	71.5
665.391	77.5
665.594	83.5
665.797	84.5
666	97.5
666.203	92.5
666.406	73.5
666.609	97.5
666.812	88.5
667.015	82.5
667.218	85.5
667.421	89.5
667.624	97.5
667.827	80.5
668.03	82.5
668.232	81.5
668.435	88.5
668.638	73.5
668.841	75.5
669.043	76.5
669.246	82.5
669.449	89.5
669.651	72.5
669.854	76.5
670.057	87.5
670.259	86.5
670.462	82.5
670.665	75.5
670.867	86.5
671.07	97.5
671.272	90.5
671.475	98.5
671.677	96.5
671.88	77.5
672.082	76.5
672.284	92.5
672.487	89.5
672.689	84.5
672.892	77.5
