Data from 1987.PennyLincolnUp.Lamp.En5.5.200Scan.071819.P2_HRD10591_17-16-38-971.txt Node
Date: Thu Jul 18 17:16:38 EDT 2019
User: cochatt
Spectrometer: HR+D1059
Trigger mode: 1
Integration Time (sec): 1.000000E-1
Scans to average: 1
Electric dark correction enabled: true
Nonlinearity correction enabled: false
Boxcar width: 0
XAxis mode: Wavelengths
Number of Pixels in Spectrum: 2048
>>>>>Begin Spectral Data<<<<<
223.165	-14.56
223.4	-14.56
223.635	-14.56
223.869	-16.56
224.104	-18.56
224.338	-23.56
224.573	-12.56
224.808	-6.56
225.042	-9.56
225.277	1.44
225.511	-6.56
225.746	7.44
225.98	-6.56
226.215	21.44
226.449	16.44
226.683	21.44
226.918	28.44
227.152	18.44
227.387	18.44
227.621	22.44
227.856	34.44
228.09	42.44
228.324	69.44
228.559	47.44
228.793	78.44
229.027	117.44
229.262	115.44
229.496	133.44
229.73	154.44
229.964	164.44
230.199	141.44
230.433	122.44
230.667	122.44
230.901	121.44
231.136	122.44
231.37	105.44
231.604	112.44
231.838	113.44
232.072	110.44
232.306	100.44
232.541	104.44
232.775	123.44
233.009	113.44
233.243	114.44
233.477	112.44
233.711	107.44
233.945	117.44
234.179	125.44
234.413	111.44
234.647	119.44
234.881	117.44
235.115	100.44
235.349	119.44
235.583	129.44
235.817	123.44
236.051	128.44
236.285	121.44
236.519	119.44
236.753	119.44
236.987	158.44
237.221	199.44
237.455	257.44
237.689	192.44
237.922	163.44
238.156	134.44
238.39	137.44
238.624	128.44
238.858	118.44
239.091	119.44
239.325	129.44
239.559	107.44
239.793	125.44
240.027	122.44
240.26	155.44
240.494	174.44
240.728	163.44
240.961	157.44
241.195	147.44
241.429	149.44
241.662	125.44
241.896	129.44
242.13	148.44
242.363	131.44
242.597	134.44
242.83	150.44
243.064	138.44
243.298	132.44
243.531	146.44
243.765	126.44
243.998	142.44
244.232	134.44
244.465	151.44
244.699	122.44
244.932	145.44
245.166	139.44
245.399	141.44
245.633	138.44
245.866	117.44
246.099	133.44
246.333	147.44
246.566	137.44
246.8	130.44
247.033	133.44
247.266	144.44
247.5	153.44
247.733	157.44
247.966	163.44
248.2	174.44
248.433	175.44
248.666	180.44
248.899	201.44
249.133	188.44
249.366	222.44
249.599	210.44
249.832	185.44
250.066	160.44
250.299	167.44
250.532	184.44
250.765	194.44
250.998	223.44
251.231	233.44
251.465	212.44
251.698	216.44
251.931	201.44
252.164	196.44
252.397	220.44
252.63	201.44
252.863	209.44
253.096	208.44
253.329	237.44
253.562	230.44
253.795	237.44
254.028	221.44
254.261	219.44
254.494	231.44
254.727	242.44
254.96	289.44
255.193	273.44
255.426	253.44
255.659	246.44
255.892	237.44
256.124	211.44
256.357	225.44
256.59	217.44
256.823	199.44
257.056	207.44
257.289	202.44
257.521	201.44
257.754	192.44
257.987	193.44
258.22	189.44
258.452	198.44
258.685	201.44
258.918	201.44
259.151	191.44
259.383	209.44
259.616	226.44
259.849	221.44
260.081	234.44
260.314	247.44
260.547	268.44
260.779	231.44
261.012	230.44
261.244	232.44
261.477	208.44
261.71	207.44
261.942	246.44
262.175	237.44
262.407	225.44
262.64	198.44
262.872	217.44
263.105	201.44
263.337	203.44
263.57	206.44
263.802	183.44
264.035	193.44
264.267	188.44
264.499	194.44
264.732	184.44
264.964	193.44
265.197	196.44
265.429	191.44
265.661	174.44
265.894	183.44
266.126	196.44
266.358	199.44
266.591	208.44
266.823	201.44
267.055	222.44
267.287	209.44
267.52	190.44
267.752	214.44
267.984	216.44
268.216	209.44
268.448	215.44
268.681	208.44
268.913	213.44
269.145	237.44
269.377	240.44
269.609	266.44
269.841	261.44
270.073	273.44
270.306	271.44
270.538	298.44
270.77	309.44
271.002	296.44
271.234	291.44
271.466	291.44
271.698	312.44
271.93	291.44
272.162	315.44
272.394	316.44
272.626	314.44
272.858	290.44
273.09	282.44
273.322	273.44
273.553	250.44
273.785	250.44
274.017	255.44
274.249	261.44
274.481	249.44
274.713	237.44
274.945	238.44
275.176	249.44
275.408	237.44
275.64	248.44
275.872	226.44
276.104	245.44
276.335	269.44
276.567	266.44
276.799	282.44
277.031	305.44
277.262	323.44
277.494	312.44
277.726	287.44
277.957	277.44
278.189	245.44
278.421	261.44
278.652	247.44
278.884	248.44
279.115	224.44
279.347	244.44
279.579	228.44
279.81	234.44
280.042	221.44
280.273	222.44
280.505	231.44
280.736	221.44
280.968	227.44
281.199	228.44
281.431	227.44
281.662	226.44
281.894	242.44
282.125	239.44
282.356	260.44
282.588	295.44
282.819	319.44
283.051	251.44
283.282	238.44
283.513	251.44
283.745	239.44
283.976	237.44
284.207	240.44
284.439	220.44
284.67	235.44
284.901	249.44
285.132	222.44
285.364	241.44
285.595	232.44
285.826	231.44
286.057	223.44
286.288	244.44
286.52	250.44
286.751	234.44
286.982	231.44
287.213	222.44
287.444	235.44
287.675	246.44
287.906	247.44
288.138	245.44
288.369	279.44
288.6	265.44
288.831	249.44
289.062	259.44
289.293	247.44
289.524	243.44
289.755	247.44
289.986	248.44
290.217	239.44
290.448	228.44
290.679	245.44
290.91	250.44
291.141	242.44
291.371	246.44
291.602	264.44
291.833	248.44
292.064	240.44
292.295	234.44
292.526	232.44
292.757	239.44
292.987	243.44
293.218	253.44
293.449	248.44
293.68	253.44
293.91	242.44
294.141	249.44
294.372	234.44
294.603	238.44
294.833	237.44
295.064	239.44
295.295	259.44
295.525	229.44
295.756	238.44
295.987	255.44
296.217	276.44
296.448	294.44
296.679	258.44
296.909	243.44
297.14	239.44
297.37	261.44
297.601	246.44
297.831	226.44
298.062	259.44
298.292	240.44
298.523	253.44
298.753	246.44
298.984	241.44
299.214	249.44
299.445	252.44
299.675	259.44
299.905	289.44
300.136	272.44
300.366	280.44
300.597	265.44
300.827	257.44
301.057	262.44
301.288	277.44
301.518	301.44
301.748	271.44
301.979	261.44
302.209	297.44
302.439	269.44
302.669	288.44
302.9	280.44
303.13	278.44
303.36	284.44
303.59	277.44
303.82	289.44
304.051	298.44
304.281	267.44
304.511	250.44
304.741	245.44
304.971	273.44
305.201	278.44
305.431	294.44
305.661	260.44
305.891	279.44
306.121	277.44
306.352	293.44
306.582	304.44
306.812	280.44
307.042	283.44
307.272	282.44
307.502	286.44
307.731	264.44
307.961	281.44
308.191	268.44
308.421	289.44
308.651	285.44
308.881	296.44
309.111	298.44
309.341	293.44
309.571	310.44
309.8	335.44
310.03	352.44
310.26	351.44
310.49	360.44
310.72	372.44
310.949	391.44
311.179	386.44
311.409	361.44
311.639	368.44
311.868	354.44
312.098	385.44
312.328	361.44
312.557	379.44
312.787	403.44
313.017	396.44
313.246	366.44
313.476	351.44
313.706	329.44
313.935	335.44
314.165	369.44
314.394	385.44
314.624	373.44
314.853	367.44
315.083	365.44
315.312	335.44
315.542	337.44
315.771	321.44
316.001	325.44
316.23	334.44
316.46	326.44
316.689	339.44
316.919	360.44
317.148	369.44
317.377	375.44
317.607	350.44
317.836	377.44
318.065	354.44
318.295	341.44
318.524	320.44
318.753	323.44
318.983	313.44
319.212	337.44
319.441	343.44
319.67	351.44
319.9	352.44
320.129	322.44
320.358	328.44
320.587	355.44
320.816	381.44
321.046	386.44
321.275	345.44
321.504	369.44
321.733	372.44
321.962	405.44
322.191	401.44
322.42	426.44
322.649	451.44
322.878	446.44
323.108	496.44
323.337	526.44
323.566	552.44
323.795	623.44
324.024	701.44
324.253	918.44
324.482	1280.44
324.71	2000.44
324.939	2830.44
325.168	2466.44
325.397	1337.44
325.626	838.44
325.855	663.44
326.084	598.44
326.313	554.44
326.542	598.44
326.77	638.44
326.999	813.44
327.228	1127.44
327.457	1731.44
327.686	2197.44
327.914	1456.44
328.143	913.44
328.372	721.44
328.6	687.44
328.829	659.44
329.058	674.44
329.287	685.44
329.515	625.44
329.744	551.44
329.972	529.44
330.201	531.44
330.43	584.44
330.658	616.44
330.887	713.44
331.115	685.44
331.344	561.44
331.572	511.44
331.801	521.44
332.03	486.44
332.258	452.44
332.486	439.44
332.715	413.44
332.943	405.44
333.172	403.44
333.4	414.44
333.629	412.44
333.857	413.44
334.085	409.44
334.314	414.44
334.542	399.44
334.771	432.44
334.999	422.44
335.227	403.44
335.455	410.44
335.684	379.44
335.912	388.44
336.14	384.44
336.369	370.44
336.597	411.44
336.825	405.44
337.053	389.44
337.281	390.44
337.51	384.44
337.738	386.44
337.966	389.44
338.194	413.44
338.422	400.44
338.65	374.44
338.878	376.44
339.106	371.44
339.334	377.44
339.562	358.44
339.79	389.44
340.018	363.44
340.246	367.44
340.474	397.44
340.702	393.44
340.93	392.44
341.158	377.44
341.386	412.44
341.614	382.44
341.842	383.44
342.07	365.44
342.298	357.44
342.526	368.44
342.754	366.44
342.981	355.44
343.209	358.44
343.437	373.44
343.665	348.44
343.893	359.44
344.12	380.44
344.348	355.44
344.576	387.44
344.804	395.44
345.031	410.44
345.259	421.44
345.487	418.44
345.714	384.44
345.942	379.44
346.17	364.44
346.397	365.44
346.625	369.44
346.853	376.44
347.08	374.44
347.308	369.44
347.535	399.44
347.763	401.44
347.99	388.44
348.218	408.44
348.445	432.44
348.673	427.44
348.9	382.44
349.128	389.44
349.355	366.44
349.583	358.44
349.81	347.44
350.037	386.44
350.265	356.44
350.492	359.44
350.72	378.44
350.947	391.44
351.174	384.44
351.402	411.44
351.629	385.44
351.856	405.44
352.083	413.44
352.311	430.44
352.538	431.44
352.765	433.44
352.992	410.44
353.22	406.44
353.447	414.44
353.674	401.44
353.901	369.44
354.128	349.44
354.355	337.44
354.583	346.44
354.81	341.44
355.037	342.44
355.264	319.44
355.491	321.44
355.718	309.44
355.945	326.44
356.172	338.44
356.399	313.44
356.626	331.44
356.853	315.44
357.08	326.44
357.307	309.44
357.534	334.44
357.761	353.44
357.988	352.44
358.215	346.44
358.441	351.44
358.668	346.44
358.895	346.44
359.122	358.44
359.349	359.44
359.576	387.44
359.802	438.44
360.029	479.44
360.256	482.44
360.483	459.44
360.709	415.44
360.936	385.44
361.163	384.44
361.39	416.44
361.616	408.44
361.843	400.44
362.07	374.44
362.296	373.44
362.523	400.44
362.749	389.44
362.976	365.44
363.203	372.44
363.429	366.44
363.656	377.44
363.882	362.44
364.109	354.44
364.335	349.44
364.562	351.44
364.788	358.44
365.015	352.44
365.241	356.44
365.468	375.44
365.694	377.44
365.92	387.44
366.147	378.44
366.373	344.44
366.599	353.44
366.826	338.44
367.052	339.44
367.278	339.44
367.505	339.44
367.731	362.44
367.957	351.44
368.184	342.44
368.41	349.44
368.636	385.44
368.862	363.44
369.089	367.44
369.315	344.44
369.541	342.44
369.767	342.44
369.993	327.44
370.219	358.44
370.445	322.44
370.672	336.44
370.898	338.44
371.124	343.44
371.35	323.44
371.576	338.44
371.802	331.44
372.028	323.44
372.254	332.44
372.48	327.44
372.706	330.44
372.932	319.44
373.158	338.44
373.384	349.44
373.61	349.44
373.835	342.44
374.061	320.44
374.287	354.44
374.513	347.44
374.739	346.44
374.965	359.44
375.191	331.44
375.416	322.44
375.642	348.44
375.868	340.44
376.094	344.44
376.319	340.44
376.545	337.44
376.771	329.44
376.997	341.44
377.222	329.44
377.448	337.44
377.674	320.44
377.899	314.44
378.125	326.44
378.35	344.44
378.576	334.44
378.802	317.44
379.027	331.44
379.253	339.44
379.478	320.44
379.704	345.44
379.929	343.44
380.155	337.44
380.38	338.44
380.606	339.44
380.831	345.44
381.057	342.44
381.282	339.44
381.507	344.44
381.733	337.44
381.958	337.44
382.184	332.44
382.409	349.44
382.634	331.44
382.86	347.44
383.085	346.44
383.31	345.44
383.535	358.44
383.761	354.44
383.986	336.44
384.211	328.44
384.436	334.44
384.662	336.44
384.887	323.44
385.112	335.44
385.337	341.44
385.562	346.44
385.787	367.44
386.013	371.44
386.238	379.44
386.463	358.44
386.688	353.44
386.913	334.44
387.138	368.44
387.363	349.44
387.588	349.44
387.813	351.44
388.038	356.44
388.263	344.44
388.488	340.44
388.713	350.44
388.938	350.44
389.163	375.44
389.387	340.44
389.612	357.44
389.837	346.44
390.062	355.44
390.287	345.44
390.512	341.44
390.736	337.44
390.961	344.44
391.186	330.44
391.411	340.44
391.636	341.44
391.86	354.44
392.085	353.44
392.31	360.44
392.534	371.44
392.759	360.44
392.984	361.44
393.208	359.44
393.433	355.44
393.658	358.44
393.882	368.44
394.107	358.44
394.331	360.44
394.556	343.44
394.78	346.44
395.005	379.44
395.229	357.44
395.454	360.44
395.678	355.44
395.903	358.44
396.127	391.44
396.352	413.44
396.576	358.44
396.801	362.44
397.025	373.44
397.249	342.44
397.474	370.44
397.698	377.44
397.922	373.44
398.147	410.44
398.371	400.44
398.595	403.44
398.82	378.44
399.044	397.44
399.268	409.44
399.492	414.44
399.717	430.44
399.941	447.44
400.165	479.44
400.389	490.44
400.613	474.44
400.837	440.44
401.062	417.44
401.286	411.44
401.51	407.44
401.734	408.44
401.958	399.44
402.182	409.44
402.406	420.44
402.63	440.44
402.854	420.44
403.078	415.44
403.302	433.44
403.526	445.44
403.75	417.44
403.974	426.44
404.198	415.44
404.422	431.44
404.645	421.44
404.869	429.44
405.093	462.44
405.317	478.44
405.541	521.44
405.765	455.44
405.988	438.44
406.212	485.44
406.436	523.44
406.66	528.44
406.883	494.44
407.107	509.44
407.331	561.44
407.555	583.44
407.778	572.44
408.002	550.44
408.226	498.44
408.449	476.44
408.673	482.44
408.896	514.44
409.12	559.44
409.344	500.44
409.567	464.44
409.791	455.44
410.014	445.44
410.238	437.44
410.461	440.44
410.685	438.44
410.908	454.44
411.132	517.44
411.355	513.44
411.578	506.44
411.802	458.44
412.025	431.44
412.249	435.44
412.472	441.44
412.695	443.44
412.919	434.44
413.142	419.44
413.365	404.44
413.589	418.44
413.812	401.44
414.035	399.44
414.258	405.44
414.482	389.44
414.705	418.44
414.928	424.44
415.151	399.44
415.374	381.44
415.597	407.44
415.821	402.44
416.044	404.44
416.267	436.44
416.49	405.44
416.713	402.44
416.936	384.44
417.159	404.44
417.382	421.44
417.605	398.44
417.828	416.44
418.051	457.44
418.274	434.44
418.497	422.44
418.72	436.44
418.943	418.44
419.166	433.44
419.389	439.44
419.611	423.44
419.834	415.44
420.057	438.44
420.28	412.44
420.503	421.44
420.726	425.44
420.948	492.44
421.171	521.44
421.394	548.44
421.617	481.44
421.839	451.44
422.062	451.44
422.285	467.44
422.507	505.44
422.73	606.44
422.953	575.44
423.175	528.44
423.398	474.44
423.621	471.44
423.843	485.44
424.066	515.44
424.288	504.44
424.511	537.44
424.733	574.44
424.956	676.44
425.178	631.44
425.401	635.44
425.623	651.44
425.846	558.44
426.068	549.44
426.291	529.44
426.513	551.44
426.735	535.44
426.958	587.44
427.18	669.44
427.402	775.44
427.625	878.44
427.847	821.44
428.069	693.44
428.292	618.44
428.514	524.44
428.736	511.44
428.958	510.44
429.181	474.44
429.403	474.44
429.625	477.44
429.847	556.44
430.069	594.44
430.292	598.44
430.514	491.44
430.736	487.44
430.958	463.44
431.18	455.44
431.402	466.44
431.624	446.44
431.846	423.44
432.068	430.44
432.29	437.44
432.512	433.44
432.734	453.44
432.956	445.44
433.178	434.44
433.4	458.44
433.622	445.44
433.844	429.44
434.066	414.44
434.287	451.44
434.509	454.44
434.731	459.44
434.953	458.44
435.175	469.44
435.397	511.44
435.618	541.44
435.84	576.44
436.062	648.44
436.284	735.44
436.505	631.44
436.727	536.44
436.949	517.44
437.17	482.44
437.392	497.44
437.614	528.44
437.835	572.44
438.057	667.44
438.278	773.44
438.5	735.44
438.721	784.44
438.943	750.44
439.165	614.44
439.386	570.44
439.608	565.44
439.829	581.44
440.05	598.44
440.272	646.44
440.493	612.44
440.715	533.44
440.936	490.44
441.158	493.44
441.379	473.44
441.6	508.44
441.822	554.44
442.043	571.44
442.264	667.44
442.486	703.44
442.707	581.44
442.928	561.44
443.149	570.44
443.371	572.44
443.592	633.44
443.813	725.44
444.034	747.44
444.255	626.44
444.476	535.44
444.698	535.44
444.919	533.44
445.14	624.44
445.361	567.44
445.582	599.44
445.803	673.44
446.024	779.44
446.245	773.44
446.466	703.44
446.687	617.44
446.908	550.44
447.129	513.44
447.35	488.44
447.571	480.44
447.792	478.44
448.013	494.44
448.234	541.44
448.455	565.44
448.675	681.44
448.896	770.44
449.117	694.44
449.338	659.44
449.559	761.44
449.779	816.44
450	687.44
450.221	561.44
450.442	530.44
450.662	529.44
450.883	499.44
451.104	543.44
451.324	529.44
451.545	524.44
451.766	464.44
451.986	453.44
452.207	425.44
452.428	458.44
452.648	439.44
452.869	455.44
453.089	471.44
453.31	470.44
453.53	450.44
453.751	452.44
453.971	459.44
454.192	486.44
454.412	497.44
454.633	454.44
454.853	442.44
455.073	440.44
455.294	481.44
455.514	546.44
455.734	542.44
455.955	461.44
456.175	418.44
456.395	407.44
456.616	411.44
456.836	417.44
457.056	402.44
457.276	395.44
457.497	391.44
457.717	380.44
457.937	410.44
458.157	431.44
458.377	436.44
458.598	458.44
458.818	555.44
459.038	665.44
459.258	660.44
459.478	567.44
459.698	494.44
459.918	455.44
460.138	445.44
460.358	438.44
460.578	429.44
460.798	445.44
461.018	447.44
461.238	438.44
461.458	409.44
461.678	425.44
461.898	420.44
462.118	404.44
462.338	430.44
462.558	403.44
462.777	427.44
462.997	431.44
463.217	442.44
463.437	448.44
463.657	417.44
463.876	415.44
464.096	432.44
464.316	443.44
464.536	459.44
464.755	458.44
464.975	478.44
465.195	576.44
465.414	695.44
465.634	609.44
465.854	538.44
466.073	498.44
466.293	467.44
466.512	456.44
466.732	454.44
466.951	438.44
467.171	432.44
467.391	423.44
467.61	447.44
467.829	485.44
468.049	458.44
468.268	456.44
468.488	409.44
468.707	407.44
468.927	414.44
469.146	419.44
469.365	432.44
469.585	403.44
469.804	437.44
470.023	458.44
470.243	442.44
470.462	442.44
470.681	471.44
470.901	488.44
471.12	450.44
471.339	447.44
471.558	447.44
471.777	441.44
471.997	430.44
472.216	418.44
472.435	438.44
472.654	429.44
472.873	428.44
473.092	438.44
473.311	439.44
473.53	424.44
473.749	452.44
473.968	503.44
474.187	622.44
474.406	661.44
474.625	511.44
474.844	466.44
475.063	449.44
475.282	435.44
475.501	448.44
475.72	445.44
475.939	451.44
476.158	448.44
476.377	472.44
476.596	450.44
476.814	464.44
477.033	479.44
477.252	481.44
477.471	480.44
477.69	457.44
477.908	473.44
478.127	465.44
478.346	479.44
478.564	486.44
478.783	469.44
479.002	493.44
479.22	455.44
479.439	515.44
479.658	550.44
479.876	532.44
480.095	526.44
480.313	575.44
480.532	537.44
480.751	537.44
480.969	545.44
481.188	565.44
481.406	577.44
481.624	546.44
481.843	509.44
482.061	513.44
482.28	528.44
482.498	512.44
482.717	510.44
482.935	513.44
483.153	507.44
483.372	517.44
483.59	533.44
483.808	526.44
484.027	524.44
484.245	531.44
484.463	517.44
484.681	516.44
484.9	525.44
485.118	529.44
485.336	532.44
485.554	527.44
485.772	523.44
485.99	532.44
486.209	529.44
486.427	546.44
486.645	587.44
486.863	614.44
487.081	587.44
487.299	580.44
487.517	561.44
487.735	570.44
487.953	547.44
488.171	573.44
488.389	590.44
488.607	575.44
488.825	601.44
489.043	548.44
489.261	583.44
489.479	589.44
489.696	575.44
489.914	580.44
490.132	607.44
490.35	608.44
490.568	597.44
490.786	601.44
491.003	610.44
491.221	609.44
491.439	625.44
491.657	647.44
491.874	636.44
492.092	663.44
492.31	659.44
492.527	656.44
492.745	651.44
492.963	696.44
493.18	666.44
493.398	665.44
493.615	683.44
493.833	680.44
494.05	666.44
494.268	672.44
494.485	694.44
494.703	687.44
494.92	716.44
495.138	693.44
495.355	688.44
495.573	710.44
495.79	663.44
496.008	699.44
496.225	670.44
496.442	687.44
496.66	707.44
496.877	688.44
497.094	695.44
497.312	699.44
497.529	719.44
497.746	695.44
497.963	721.44
498.181	737.44
498.398	734.44
498.615	740.44
498.832	758.44
499.049	738.44
499.267	740.44
499.484	750.44
499.701	759.44
499.918	762.44
500.135	795.44
500.352	816.44
500.569	783.44
500.786	807.44
501.003	793.44
501.22	797.44
501.437	801.44
501.654	780.44
501.871	817.44
502.088	838.44
502.305	771.44
502.522	743.44
502.739	756.44
502.956	738.44
503.172	700.44
503.389	706.44
503.606	718.44
503.823	718.44
504.04	713.44
504.256	713.44
504.473	713.44
504.69	686.44
504.907	696.44
505.123	682.44
505.34	663.44
505.557	682.44
505.773	670.44
505.99	684.44
506.207	661.44
506.423	703.44
506.64	698.44
506.856	679.44
507.073	666.44
507.289	671.44
507.506	650.44
507.722	687.44
507.939	738.44
508.155	708.44
508.372	677.44
508.588	671.44
508.805	665.44
509.021	672.44
509.238	701.44
509.454	706.44
509.67	698.44
509.887	696.44
510.103	688.44
510.319	696.44
510.536	853.44
510.752	1623.44
510.968	1339.44
511.184	762.44
511.401	687.44
511.617	676.44
511.833	675.44
512.049	625.44
512.265	655.44
512.481	650.44
512.698	666.44
512.914	643.44
513.13	643.44
513.346	640.44
513.562	638.44
513.778	675.44
513.994	678.44
514.21	713.44
514.426	765.44
514.642	858.44
514.858	916.44
515.074	963.44
515.29	1205.44
515.506	1929.44
515.721	1514.44
515.937	946.44
516.153	800.44
516.369	740.44
516.585	705.44
516.801	670.44
517.016	676.44
517.232	654.44
517.448	647.44
517.664	677.44
517.879	681.44
518.095	644.44
518.311	658.44
518.527	640.44
518.742	664.44
518.958	657.44
519.173	652.44
519.389	669.44
519.605	667.44
519.82	665.44
520.036	721.44
520.251	756.44
520.467	790.44
520.682	787.44
520.898	829.44
521.113	886.44
521.329	953.44
521.544	1126.44
521.76	1537.44
521.975	2643.44
522.19	2624.44
522.406	1317.44
522.621	936.44
522.836	781.44
523.052	717.44
523.267	703.44
523.482	658.44
523.698	643.44
523.913	630.44
524.128	647.44
524.343	605.44
524.559	601.44
524.774	561.44
524.989	554.44
525.204	576.44
525.419	584.44
525.634	565.44
525.849	545.44
526.064	552.44
526.28	547.44
526.495	527.44
526.71	515.44
526.925	532.44
527.14	537.44
527.355	514.44
527.57	511.44
527.785	513.44
527.999	506.44
528.214	469.44
528.429	509.44
528.644	506.44
528.859	482.44
529.074	533.44
529.289	587.44
529.503	720.44
529.718	673.44
529.933	612.44
530.148	547.44
530.363	521.44
530.577	509.44
530.792	520.44
531.007	511.44
531.221	496.44
531.436	477.44
531.651	477.44
531.865	466.44
532.08	499.44
532.295	480.44
532.509	459.44
532.724	456.44
532.938	464.44
533.153	458.44
533.367	453.44
533.582	471.44
533.796	452.44
534.011	484.44
534.225	454.44
534.44	467.44
534.654	449.44
534.868	439.44
535.083	442.44
535.297	457.44
535.511	477.44
535.726	487.44
535.94	495.44
536.154	480.44
536.369	461.44
536.583	466.44
536.797	471.44
537.011	451.44
537.225	423.44
537.44	426.44
537.654	434.44
537.868	442.44
538.082	475.44
538.296	446.44
538.51	445.44
538.724	456.44
538.938	474.44
539.153	457.44
539.367	450.44
539.581	475.44
539.795	447.44
540.009	450.44
540.222	432.44
540.436	446.44
540.65	457.44
540.864	435.44
541.078	447.44
541.292	453.44
541.506	454.44
541.72	461.44
541.934	441.44
542.147	443.44
542.361	442.44
542.575	431.44
542.789	432.44
543.002	459.44
543.216	431.44
543.43	456.44
543.644	439.44
543.857	453.44
544.071	453.44
544.285	439.44
544.498	412.44
544.712	430.44
544.925	429.44
545.139	422.44
545.352	423.44
545.566	408.44
545.779	399.44
545.993	405.44
546.206	418.44
546.42	415.44
546.633	418.44
546.847	415.44
547.06	392.44
547.274	415.44
547.487	390.44
547.7	421.44
547.914	414.44
548.127	394.44
548.34	393.44
548.554	409.44
548.767	393.44
548.98	399.44
549.193	397.44
549.407	377.44
549.62	386.44
549.833	385.44
550.046	369.44
550.259	383.44
550.473	405.44
550.686	402.44
550.899	383.44
551.112	390.44
551.325	375.44
551.538	386.44
551.751	368.44
551.964	386.44
552.177	387.44
552.39	384.44
552.603	393.44
552.816	389.44
553.029	406.44
553.242	406.44
553.455	406.44
553.667	429.44
553.88	453.44
554.093	413.44
554.306	417.44
554.519	392.44
554.732	409.44
554.944	401.44
555.157	395.44
555.37	386.44
555.583	401.44
555.795	395.44
556.008	357.44
556.221	377.44
556.433	365.44
556.646	385.44
556.859	361.44
557.071	361.44
557.284	379.44
557.496	371.44
557.709	360.44
557.921	360.44
558.134	367.44
558.346	352.44
558.559	364.44
558.771	375.44
558.984	345.44
559.196	371.44
559.409	349.44
559.621	361.44
559.833	363.44
560.046	353.44
560.258	366.44
560.47	347.44
560.683	351.44
560.895	352.44
561.107	359.44
561.32	356.44
561.532	348.44
561.744	349.44
561.956	353.44
562.168	352.44
562.381	352.44
562.593	354.44
562.805	370.44
563.017	358.44
563.229	354.44
563.441	368.44
563.653	358.44
563.865	361.44
564.077	349.44
564.289	351.44
564.501	368.44
564.713	365.44
564.925	379.44
565.137	374.44
565.349	378.44
565.561	378.44
565.773	385.44
565.985	370.44
566.197	377.44
566.408	375.44
566.62	378.44
566.832	376.44
567.044	370.44
567.255	393.44
567.467	390.44
567.679	383.44
567.891	412.44
568.102	384.44
568.314	378.44
568.526	399.44
568.737	377.44
568.949	380.44
569.161	376.44
569.372	351.44
569.584	356.44
569.795	361.44
570.007	357.44
570.218	451.44
570.43	441.44
570.641	365.44
570.853	334.44
571.064	349.44
571.276	330.44
571.487	332.44
571.698	349.44
571.91	338.44
572.121	319.44
572.333	317.44
572.544	304.44
572.755	309.44
572.966	317.44
573.178	303.44
573.389	322.44
573.6	318.44
573.811	314.44
574.023	341.44
574.234	321.44
574.445	317.44
574.656	322.44
574.867	307.44
575.078	315.44
575.289	298.44
575.501	309.44
575.712	316.44
575.923	311.44
576.134	289.44
576.345	303.44
576.556	291.44
576.767	300.44
576.978	295.44
577.188	286.44
577.399	314.44
577.61	297.44
577.821	309.44
578.032	318.44
578.243	371.44
578.454	749.44
578.665	525.44
578.875	331.44
579.086	321.44
579.297	278.44
579.508	289.44
579.718	289.44
579.929	298.44
580.14	289.44
580.35	303.44
580.561	283.44
580.772	294.44
580.982	276.44
581.193	259.44
581.403	277.44
581.614	280.44
581.825	288.44
582.035	276.44
582.246	294.44
582.456	265.44
582.667	265.44
582.877	273.44
583.087	275.44
583.298	280.44
583.508	277.44
583.719	283.44
583.929	283.44
584.139	264.44
584.35	287.44
584.56	276.44
584.77	273.44
584.981	283.44
585.191	286.44
585.401	285.44
585.611	287.44
585.821	291.44
586.032	272.44
586.242	275.44
586.452	281.44
586.662	261.44
586.872	270.44
587.082	260.44
587.292	267.44
587.502	269.44
587.713	277.44
587.923	287.44
588.133	274.44
588.343	276.44
588.553	278.44
588.762	265.44
588.972	269.44
589.182	273.44
589.392	269.44
589.602	291.44
589.812	268.44
590.022	281.44
590.232	264.44
590.441	272.44
590.651	264.44
590.861	265.44
591.071	261.44
591.281	254.44
591.49	260.44
591.7	270.44
591.91	260.44
592.119	272.44
592.329	274.44
592.539	272.44
592.748	288.44
592.958	281.44
593.167	281.44
593.377	252.44
593.587	265.44
593.796	257.44
594.006	281.44
594.215	265.44
594.424	267.44
594.634	263.44
594.843	270.44
595.053	252.44
595.262	261.44
595.472	277.44
595.681	249.44
595.89	258.44
596.1	264.44
596.309	254.44
596.518	256.44
596.727	248.44
596.937	251.44
597.146	256.44
597.355	271.44
597.564	260.44
597.774	241.44
597.983	254.44
598.192	249.44
598.401	241.44
598.61	250.44
598.819	238.44
599.028	238.44
599.237	250.44
599.446	239.44
599.655	234.44
599.864	238.44
600.073	244.44
600.282	238.44
600.491	238.44
600.7	249.44
600.909	250.44
601.118	237.44
601.327	228.44
601.536	231.44
601.745	230.44
601.953	229.44
602.162	259.44
602.371	227.44
602.58	221.44
602.789	233.44
602.997	231.44
603.206	242.44
603.415	227.44
603.623	215.44
603.832	231.44
604.041	209.44
604.249	228.44
604.458	218.44
604.666	222.44
604.875	222.44
605.084	218.44
605.292	220.44
605.501	225.44
605.709	221.44
605.918	226.44
606.126	235.44
606.334	225.44
606.543	220.44
606.751	221.44
606.96	241.44
607.168	231.44
607.376	209.44
607.585	225.44
607.793	217.44
608.001	223.44
608.21	228.44
608.418	217.44
608.626	234.44
608.834	225.44
609.043	223.44
609.251	228.44
609.459	253.44
609.667	237.44
609.875	208.44
610.083	219.44
610.291	221.44
610.499	219.44
610.707	210.44
610.916	234.44
611.124	227.44
611.332	231.44
611.54	223.44
611.748	241.44
611.955	214.44
612.163	231.44
612.371	220.44
612.579	203.44
612.787	221.44
612.995	210.44
613.203	223.44
613.411	224.44
613.618	219.44
613.826	218.44
614.034	214.44
614.242	204.44
614.449	210.44
614.657	226.44
614.865	214.44
615.072	220.44
615.28	216.44
615.488	227.44
615.695	204.44
615.903	211.44
616.111	218.44
616.318	214.44
616.526	225.44
616.733	223.44
616.941	191.44
617.148	214.44
617.356	233.44
617.563	218.44
617.771	219.44
617.978	217.44
618.185	219.44
618.393	209.44
618.6	202.44
618.807	214.44
619.015	223.44
619.222	202.44
619.429	208.44
619.637	213.44
619.844	215.44
620.051	216.44
620.258	214.44
620.466	206.44
620.673	200.44
620.88	208.44
621.087	198.44
621.294	198.44
621.501	211.44
621.708	210.44
621.915	215.44
622.122	196.44
622.329	205.44
622.536	199.44
622.743	219.44
622.95	206.44
623.157	191.44
623.364	187.44
623.571	205.44
623.778	188.44
623.985	202.44
624.192	197.44
624.399	194.44
624.606	190.44
624.812	196.44
625.019	182.44
625.226	200.44
625.433	190.44
625.639	187.44
625.846	205.44
626.053	186.44
626.259	206.44
626.466	187.44
626.673	191.44
626.879	196.44
627.086	182.44
627.293	198.44
627.499	196.44
627.706	194.44
627.912	200.44
628.119	182.44
628.325	182.44
628.532	189.44
628.738	185.44
628.945	183.44
629.151	163.44
629.357	168.44
629.564	189.44
629.77	183.44
629.976	184.44
630.183	184.44
630.389	189.44
630.595	192.44
630.802	182.44
631.008	184.44
631.214	184.44
631.42	169.44
631.627	180.44
631.833	165.44
632.039	185.44
632.245	179.44
632.451	180.44
632.657	179.44
632.863	174.44
633.069	175.44
633.275	183.44
633.481	166.44
633.688	164.44
633.893	189.44
634.099	183.44
634.305	187.44
634.511	170.44
634.717	177.44
634.923	159.44
635.129	169.44
635.335	163.44
635.541	178.44
635.747	181.44
635.952	168.44
636.158	165.44
636.364	183.44
636.57	169.44
636.775	166.44
636.981	169.44
637.187	174.44
637.392	175.44
637.598	169.44
637.804	157.44
638.009	177.44
638.215	166.44
638.421	146.44
638.626	154.44
638.832	168.44
639.037	163.44
639.243	164.44
639.448	155.44
639.654	153.44
639.859	164.44
640.065	162.44
640.27	160.44
640.475	170.44
640.681	175.44
640.886	156.44
641.091	163.44
641.297	143.44
641.502	169.44
641.707	164.44
641.913	142.44
642.118	152.44
642.323	150.44
642.528	161.44
642.733	154.44
642.939	158.44
643.144	152.44
643.349	160.44
643.554	161.44
643.759	159.44
643.964	160.44
644.169	149.44
644.374	153.44
644.579	142.44
644.784	145.44
644.989	149.44
645.194	144.44
645.399	148.44
645.604	142.44
645.809	157.44
646.014	145.44
646.219	151.44
646.423	157.44
646.628	148.44
646.833	160.44
647.038	138.44
647.243	164.44
647.447	149.44
647.652	147.44
647.857	148.44
648.062	146.44
648.266	150.44
648.471	157.44
648.676	165.44
648.88	153.44
649.085	139.44
649.289	165.44
649.494	165.44
649.698	187.44
649.903	195.44
650.107	154.44
650.312	163.44
650.516	156.44
650.721	148.44
650.925	142.44
651.13	144.44
651.334	135.44
651.539	143.44
651.743	141.44
651.947	135.44
652.152	151.44
652.356	128.44
652.56	127.44
652.764	136.44
652.969	129.44
653.173	134.44
653.377	135.44
653.581	122.44
653.785	130.44
653.99	121.44
654.194	127.44
654.398	124.44
654.602	141.44
654.806	126.44
655.01	126.44
655.214	141.44
655.418	129.44
655.622	123.44
655.826	123.44
656.03	120.44
656.234	113.44
656.438	119.44
656.642	117.44
656.846	128.44
657.049	121.44
657.253	114.44
657.457	123.44
657.661	111.44
657.865	104.44
658.068	99.44
658.272	106.44
658.476	89.44
658.68	121.44
658.883	101.44
659.087	97.44
659.291	85.44
659.494	100.44
659.698	93.44
659.901	106.44
660.105	81.44
660.309	95.44
660.512	85.44
660.716	91.44
660.919	102.44
661.123	95.44
661.326	89.44
661.53	76.44
661.733	89.44
661.936	98.44
662.14	73.44
662.343	97.44
662.546	77.44
662.75	79.44
662.953	72.44
663.156	92.44
663.36	71.44
663.563	85.44
663.766	83.44
663.969	94.44
664.173	92.44
664.376	75.44
664.579	91.44
664.782	88.44
664.985	72.44
665.188	87.44
665.391	78.44
665.594	80.44
665.797	81.44
666	86.44
666.203	64.44
666.406	85.44
666.609	79.44
666.812	100.44
667.015	85.44
667.218	81.44
667.421	91.44
667.624	75.44
667.827	78.44
668.03	79.44
668.232	93.44
668.435	86.44
668.638	66.44
668.841	77.44
669.043	91.44
669.246	82.44
669.449	85.44
669.651	82.44
669.854	88.44
670.057	79.44
670.259	75.44
670.462	83.44
670.665	57.44
670.867	68.44
671.07	81.44
671.272	87.44
671.475	79.44
671.677	78.44
671.88	74.44
672.082	78.44
672.284	87.44
672.487	84.44
672.689	75.44
672.892	89.44
