Data from 1988.PennyLincolnUp.Lamp.En5.5.200Scan.071819.P2_HRD10591_17-21-04-973.txt Node
Date: Thu Jul 18 17:21:04 EDT 2019
User: cochatt
Spectrometer: HR+D1059
Trigger mode: 1
Integration Time (sec): 1.000000E-1
Scans to average: 1
Electric dark correction enabled: true
Nonlinearity correction enabled: false
Boxcar width: 0
XAxis mode: Wavelengths
Number of Pixels in Spectrum: 2048
>>>>>Begin Spectral Data<<<<<
223.165	-14.88
223.4	-14.88
223.635	-14.88
223.869	-20.88
224.104	-30.88
224.338	-12.88
224.573	-13.88
224.808	-21.88
225.042	-0.88
225.277	-16.88
225.511	5.12
225.746	8.12
225.98	11.12
226.215	12.12
226.449	12.12
226.683	23.12
226.918	33.12
227.152	28.12
227.387	21.12
227.621	33.12
227.856	40.12
228.09	44.12
228.324	58.12
228.559	68.12
228.793	72.12
229.027	100.12
229.262	119.12
229.496	118.12
229.73	146.12
229.964	164.12
230.199	136.12
230.433	120.12
230.667	125.12
230.901	114.12
231.136	119.12
231.37	118.12
231.604	118.12
231.838	136.12
232.072	131.12
232.306	132.12
232.541	111.12
232.775	107.12
233.009	116.12
233.243	127.12
233.477	128.12
233.711	129.12
233.945	119.12
234.179	133.12
234.413	125.12
234.647	118.12
234.881	119.12
235.115	126.12
235.349	123.12
235.583	124.12
235.817	129.12
236.051	150.12
236.285	154.12
236.519	144.12
236.753	134.12
236.987	158.12
237.221	207.12
237.455	261.12
237.689	223.12
237.922	151.12
238.156	141.12
238.39	140.12
238.624	133.12
238.858	138.12
239.091	135.12
239.325	128.12
239.559	143.12
239.793	127.12
240.027	148.12
240.26	142.12
240.494	168.12
240.728	156.12
240.961	161.12
241.195	157.12
241.429	148.12
241.662	129.12
241.896	150.12
242.13	137.12
242.363	138.12
242.597	130.12
242.83	154.12
243.064	156.12
243.298	153.12
243.531	128.12
243.765	155.12
243.998	137.12
244.232	157.12
244.465	149.12
244.699	151.12
244.932	163.12
245.166	142.12
245.399	167.12
245.633	154.12
245.866	152.12
246.099	153.12
246.333	155.12
246.566	168.12
246.8	160.12
247.033	150.12
247.266	190.12
247.5	172.12
247.733	173.12
247.966	203.12
248.2	194.12
248.433	203.12
248.666	185.12
248.899	203.12
249.133	207.12
249.366	242.12
249.599	222.12
249.832	202.12
250.066	193.12
250.299	177.12
250.532	198.12
250.765	232.12
250.998	216.12
251.231	234.12
251.465	223.12
251.698	210.12
251.931	219.12
252.164	210.12
252.397	212.12
252.63	208.12
252.863	212.12
253.096	231.12
253.329	228.12
253.562	240.12
253.795	250.12
254.028	215.12
254.261	228.12
254.494	258.12
254.727	280.12
254.96	299.12
255.193	295.12
255.426	284.12
255.659	251.12
255.892	253.12
256.124	243.12
256.357	231.12
256.59	238.12
256.823	241.12
257.056	215.12
257.289	235.12
257.521	256.12
257.754	205.12
257.987	225.12
258.22	251.12
258.452	222.12
258.685	228.12
258.918	226.12
259.151	225.12
259.383	248.12
259.616	228.12
259.849	235.12
260.081	254.12
260.314	275.12
260.547	283.12
260.779	268.12
261.012	253.12
261.244	245.12
261.477	257.12
261.71	264.12
261.942	272.12
262.175	244.12
262.407	259.12
262.64	257.12
262.872	237.12
263.105	227.12
263.337	234.12
263.57	236.12
263.802	239.12
264.035	229.12
264.267	228.12
264.499	234.12
264.732	256.12
264.964	204.12
265.197	222.12
265.429	230.12
265.661	217.12
265.894	237.12
266.126	229.12
266.358	229.12
266.591	257.12
266.823	260.12
267.055	234.12
267.287	258.12
267.52	242.12
267.752	264.12
267.984	260.12
268.216	250.12
268.448	258.12
268.681	248.12
268.913	248.12
269.145	301.12
269.377	309.12
269.609	292.12
269.841	304.12
270.073	296.12
270.306	313.12
270.538	366.12
270.77	337.12
271.002	339.12
271.234	329.12
271.466	334.12
271.698	320.12
271.93	341.12
272.162	364.12
272.394	350.12
272.626	321.12
272.858	325.12
273.09	305.12
273.322	312.12
273.553	293.12
273.785	294.12
274.017	278.12
274.249	283.12
274.481	292.12
274.713	297.12
274.945	299.12
275.176	310.12
275.408	291.12
275.64	293.12
275.872	294.12
276.104	290.12
276.335	292.12
276.567	294.12
276.799	306.12
277.031	346.12
277.262	342.12
277.494	344.12
277.726	351.12
277.957	317.12
278.189	313.12
278.421	320.12
278.652	304.12
278.884	306.12
279.115	288.12
279.347	295.12
279.579	292.12
279.81	293.12
280.042	293.12
280.273	285.12
280.505	301.12
280.736	295.12
280.968	305.12
281.199	304.12
281.431	300.12
281.662	299.12
281.894	289.12
282.125	300.12
282.356	314.12
282.588	346.12
282.819	334.12
283.051	327.12
283.282	294.12
283.513	280.12
283.745	308.12
283.976	303.12
284.207	316.12
284.439	306.12
284.67	310.12
284.901	324.12
285.132	305.12
285.364	301.12
285.595	308.12
285.826	296.12
286.057	308.12
286.288	307.12
286.52	306.12
286.751	319.12
286.982	324.12
287.213	317.12
287.444	316.12
287.675	332.12
287.906	332.12
288.138	350.12
288.369	354.12
288.6	339.12
288.831	338.12
289.062	339.12
289.293	320.12
289.524	328.12
289.755	328.12
289.986	333.12
290.217	321.12
290.448	310.12
290.679	331.12
290.91	306.12
291.141	322.12
291.371	311.12
291.602	322.12
291.833	347.12
292.064	317.12
292.295	333.12
292.526	334.12
292.757	323.12
292.987	314.12
293.218	326.12
293.449	320.12
293.68	304.12
293.91	325.12
294.141	345.12
294.372	315.12
294.603	307.12
294.833	331.12
295.064	327.12
295.295	331.12
295.525	338.12
295.756	326.12
295.987	336.12
296.217	352.12
296.448	396.12
296.679	348.12
296.909	334.12
297.14	320.12
297.37	334.12
297.601	339.12
297.831	340.12
298.062	344.12
298.292	334.12
298.523	342.12
298.753	341.12
298.984	342.12
299.214	354.12
299.445	348.12
299.675	343.12
299.905	334.12
300.136	352.12
300.366	361.12
300.597	334.12
300.827	361.12
301.057	356.12
301.288	369.12
301.518	361.12
301.748	365.12
301.979	362.12
302.209	357.12
302.439	369.12
302.669	361.12
302.9	370.12
303.13	362.12
303.36	368.12
303.59	378.12
303.82	374.12
304.051	391.12
304.281	390.12
304.511	376.12
304.741	374.12
304.971	372.12
305.201	355.12
305.431	357.12
305.661	373.12
305.891	366.12
306.121	368.12
306.352	380.12
306.582	370.12
306.812	368.12
307.042	387.12
307.272	376.12
307.502	362.12
307.731	369.12
307.961	379.12
308.191	392.12
308.421	388.12
308.651	364.12
308.881	380.12
309.111	384.12
309.341	378.12
309.571	393.12
309.8	422.12
310.03	412.12
310.26	426.12
310.49	423.12
310.72	435.12
310.949	468.12
311.179	458.12
311.409	406.12
311.639	421.12
311.868	423.12
312.098	430.12
312.328	416.12
312.557	440.12
312.787	462.12
313.017	468.12
313.246	427.12
313.476	427.12
313.706	448.12
313.935	448.12
314.165	449.12
314.394	461.12
314.624	442.12
314.853	436.12
315.083	427.12
315.312	417.12
315.542	423.12
315.771	427.12
316.001	418.12
316.23	428.12
316.46	412.12
316.689	442.12
316.919	418.12
317.148	452.12
317.377	458.12
317.607	435.12
317.836	454.12
318.065	410.12
318.295	439.12
318.524	444.12
318.753	448.12
318.983	420.12
319.212	423.12
319.441	446.12
319.67	462.12
319.9	450.12
320.129	437.12
320.358	440.12
320.587	427.12
320.816	459.12
321.046	468.12
321.275	464.12
321.504	465.12
321.733	463.12
321.962	470.12
322.191	481.12
322.42	485.12
322.649	502.12
322.878	533.12
323.108	524.12
323.337	554.12
323.566	593.12
323.795	594.12
324.024	672.12
324.253	795.12
324.482	1173.12
324.71	1846.12
324.939	2797.12
325.168	2344.12
325.397	1163.12
325.626	795.12
325.855	663.12
326.084	621.12
326.313	600.12
326.542	574.12
326.77	633.12
326.999	752.12
327.228	1042.12
327.457	1641.12
327.686	2069.12
327.914	1323.12
328.143	840.12
328.372	722.12
328.6	692.12
328.829	629.12
329.058	679.12
329.287	694.12
329.515	640.12
329.744	582.12
329.972	594.12
330.201	593.12
330.43	605.12
330.658	648.12
330.887	703.12
331.115	678.12
331.344	597.12
331.572	562.12
331.801	572.12
332.03	578.12
332.258	562.12
332.486	518.12
332.715	520.12
332.943	523.12
333.172	504.12
333.4	529.12
333.629	509.12
333.857	546.12
334.085	536.12
334.314	555.12
334.542	544.12
334.771	555.12
334.999	560.12
335.227	557.12
335.455	520.12
335.684	514.12
335.912	524.12
336.14	516.12
336.369	546.12
336.597	501.12
336.825	536.12
337.053	535.12
337.281	512.12
337.51	499.12
337.738	518.12
337.966	513.12
338.194	515.12
338.422	516.12
338.65	505.12
338.878	497.12
339.106	518.12
339.334	513.12
339.562	492.12
339.79	497.12
340.018	500.12
340.246	498.12
340.474	515.12
340.702	496.12
340.93	493.12
341.158	484.12
341.386	498.12
341.614	509.12
341.842	517.12
342.07	485.12
342.298	460.12
342.526	481.12
342.754	476.12
342.981	483.12
343.209	475.12
343.437	490.12
343.665	504.12
343.893	505.12
344.12	520.12
344.348	503.12
344.576	517.12
344.804	507.12
345.031	532.12
345.259	528.12
345.487	510.12
345.714	500.12
345.942	491.12
346.17	494.12
346.397	501.12
346.625	486.12
346.853	483.12
347.08	484.12
347.308	465.12
347.535	505.12
347.763	519.12
347.99	482.12
348.218	508.12
348.445	517.12
348.673	526.12
348.9	490.12
349.128	475.12
349.355	457.12
349.583	469.12
349.81	464.12
350.037	477.12
350.265	469.12
350.492	471.12
350.72	471.12
350.947	500.12
351.174	509.12
351.402	488.12
351.629	484.12
351.856	489.12
352.083	494.12
352.311	504.12
352.538	530.12
352.765	503.12
352.992	528.12
353.22	479.12
353.447	504.12
353.674	475.12
353.901	481.12
354.128	473.12
354.355	453.12
354.583	445.12
354.81	470.12
355.037	466.12
355.264	454.12
355.491	442.12
355.718	441.12
355.945	433.12
356.172	430.12
356.399	457.12
356.626	441.12
356.853	460.12
357.08	453.12
357.307	466.12
357.534	450.12
357.761	466.12
357.988	466.12
358.215	454.12
358.441	451.12
358.668	444.12
358.895	461.12
359.122	462.12
359.349	461.12
359.576	501.12
359.802	521.12
360.029	526.12
360.256	575.12
360.483	530.12
360.709	500.12
360.936	492.12
361.163	492.12
361.39	501.12
361.616	508.12
361.843	499.12
362.07	487.12
362.296	500.12
362.523	496.12
362.749	497.12
362.976	465.12
363.203	474.12
363.429	480.12
363.656	484.12
363.882	474.12
364.109	485.12
364.335	473.12
364.562	454.12
364.788	476.12
365.015	459.12
365.241	449.12
365.468	466.12
365.694	475.12
365.92	502.12
366.147	484.12
366.373	471.12
366.599	480.12
366.826	470.12
367.052	470.12
367.278	464.12
367.505	463.12
367.731	474.12
367.957	463.12
368.184	483.12
368.41	459.12
368.636	491.12
368.862	475.12
369.089	466.12
369.315	463.12
369.541	462.12
369.767	456.12
369.993	455.12
370.219	462.12
370.445	463.12
370.672	469.12
370.898	472.12
371.124	468.12
371.35	481.12
371.576	469.12
371.802	468.12
372.028	471.12
372.254	456.12
372.48	460.12
372.706	473.12
372.932	457.12
373.158	507.12
373.384	489.12
373.61	473.12
373.835	494.12
374.061	493.12
374.287	480.12
374.513	485.12
374.739	484.12
374.965	483.12
375.191	465.12
375.416	489.12
375.642	485.12
375.868	470.12
376.094	467.12
376.319	486.12
376.545	484.12
376.771	469.12
376.997	464.12
377.222	472.12
377.448	471.12
377.674	468.12
377.899	476.12
378.125	466.12
378.35	470.12
378.576	469.12
378.802	489.12
379.027	480.12
379.253	454.12
379.478	466.12
379.704	481.12
379.929	466.12
380.155	471.12
380.38	470.12
380.606	464.12
380.831	458.12
381.057	475.12
381.282	472.12
381.507	481.12
381.733	490.12
381.958	479.12
382.184	478.12
382.409	493.12
382.634	502.12
382.86	483.12
383.085	490.12
383.31	496.12
383.535	487.12
383.761	478.12
383.986	483.12
384.211	520.12
384.436	502.12
384.662	521.12
384.887	491.12
385.112	492.12
385.337	516.12
385.562	522.12
385.787	528.12
386.013	538.12
386.238	537.12
386.463	557.12
386.688	511.12
386.913	535.12
387.138	496.12
387.363	528.12
387.588	518.12
387.813	526.12
388.038	509.12
388.263	523.12
388.488	534.12
388.713	524.12
388.938	536.12
389.163	529.12
389.387	546.12
389.612	526.12
389.837	511.12
390.062	514.12
390.287	533.12
390.512	517.12
390.736	528.12
390.961	525.12
391.186	499.12
391.411	527.12
391.636	536.12
391.86	524.12
392.085	533.12
392.31	550.12
392.534	550.12
392.759	555.12
392.984	535.12
393.208	534.12
393.433	547.12
393.658	515.12
393.882	525.12
394.107	537.12
394.331	537.12
394.556	542.12
394.78	526.12
395.005	531.12
395.229	544.12
395.454	531.12
395.678	556.12
395.903	566.12
396.127	569.12
396.352	571.12
396.576	553.12
396.801	549.12
397.025	564.12
397.249	574.12
397.474	548.12
397.698	570.12
397.922	586.12
398.147	591.12
398.371	617.12
398.595	579.12
398.82	602.12
399.044	617.12
399.268	627.12
399.492	666.12
399.717	718.12
399.941	754.12
400.165	751.12
400.389	773.12
400.613	701.12
400.837	646.12
401.062	635.12
401.286	626.12
401.51	584.12
401.734	620.12
401.958	629.12
402.182	632.12
402.406	619.12
402.63	632.12
402.854	630.12
403.078	617.12
403.302	610.12
403.526	642.12
403.75	669.12
403.974	620.12
404.198	601.12
404.422	612.12
404.645	662.12
404.869	636.12
405.093	650.12
405.317	700.12
405.541	743.12
405.765	685.12
405.988	641.12
406.212	693.12
406.436	694.12
406.66	720.12
406.883	680.12
407.107	717.12
407.331	752.12
407.555	845.12
407.778	856.12
408.002	781.12
408.226	708.12
408.449	699.12
408.673	729.12
408.896	758.12
409.12	766.12
409.344	771.12
409.567	674.12
409.791	652.12
410.014	665.12
410.238	628.12
410.461	640.12
410.685	645.12
410.908	647.12
411.132	700.12
411.355	760.12
411.578	699.12
411.802	640.12
412.025	636.12
412.249	629.12
412.472	661.12
412.695	660.12
412.919	697.12
413.142	644.12
413.365	613.12
413.589	622.12
413.812	594.12
414.035	601.12
414.258	611.12
414.482	598.12
414.705	605.12
414.928	611.12
415.151	598.12
415.374	593.12
415.597	599.12
415.821	615.12
416.044	602.12
416.267	601.12
416.49	593.12
416.713	604.12
416.936	606.12
417.159	597.12
417.382	604.12
417.605	616.12
417.828	621.12
418.051	628.12
418.274	604.12
418.497	604.12
418.72	601.12
418.943	606.12
419.166	613.12
419.389	654.12
419.611	657.12
419.834	644.12
420.057	634.12
420.28	635.12
420.503	613.12
420.726	629.12
420.948	644.12
421.171	711.12
421.394	728.12
421.617	675.12
421.839	617.12
422.062	652.12
422.285	660.12
422.507	752.12
422.73	844.12
422.953	777.12
423.175	677.12
423.398	669.12
423.621	664.12
423.843	708.12
424.066	696.12
424.288	686.12
424.511	730.12
424.733	763.12
424.956	891.12
425.178	847.12
425.401	814.12
425.623	871.12
425.846	737.12
426.068	683.12
426.291	660.12
426.513	674.12
426.735	654.12
426.958	728.12
427.18	845.12
427.402	1009.12
427.625	1102.12
427.847	926.12
428.069	833.12
428.292	725.12
428.514	688.12
428.736	669.12
428.958	642.12
429.181	636.12
429.403	621.12
429.625	611.12
429.847	682.12
430.069	777.12
430.292	748.12
430.514	678.12
430.736	620.12
430.958	617.12
431.18	619.12
431.402	614.12
431.624	575.12
431.846	594.12
432.068	603.12
432.29	617.12
432.512	596.12
432.734	633.12
432.956	602.12
433.178	608.12
433.4	632.12
433.622	596.12
433.844	589.12
434.066	598.12
434.287	585.12
434.509	608.12
434.731	614.12
434.953	604.12
435.175	631.12
435.397	664.12
435.618	676.12
435.84	733.12
436.062	822.12
436.284	930.12
436.505	776.12
436.727	710.12
436.949	670.12
437.17	648.12
437.392	657.12
437.614	650.12
437.835	670.12
438.057	811.12
438.278	934.12
438.5	941.12
438.721	1033.12
438.943	966.12
439.165	772.12
439.386	692.12
439.608	700.12
439.829	707.12
440.05	712.12
440.272	801.12
440.493	728.12
440.715	673.12
440.936	652.12
441.158	641.12
441.379	656.12
441.6	650.12
441.822	658.12
442.043	724.12
442.264	826.12
442.486	900.12
442.707	786.12
442.928	712.12
443.149	710.12
443.371	685.12
443.592	794.12
443.813	889.12
444.034	957.12
444.255	788.12
444.476	728.12
444.698	688.12
444.919	702.12
445.14	802.12
445.361	734.12
445.582	725.12
445.803	808.12
446.024	950.12
446.245	979.12
446.466	861.12
446.687	732.12
446.908	667.12
447.129	637.12
447.35	600.12
447.571	625.12
447.792	615.12
448.013	632.12
448.234	664.12
448.455	708.12
448.675	874.12
448.896	999.12
449.117	834.12
449.338	800.12
449.559	930.12
449.779	1051.12
450	826.12
450.221	697.12
450.442	662.12
450.662	606.12
450.883	628.12
451.104	635.12
451.324	622.12
451.545	589.12
451.766	606.12
451.986	587.12
452.207	575.12
452.428	561.12
452.648	561.12
452.869	562.12
453.089	568.12
453.31	580.12
453.53	562.12
453.751	555.12
453.971	565.12
454.192	586.12
454.412	571.12
454.633	552.12
454.853	549.12
455.073	554.12
455.294	585.12
455.514	679.12
455.734	676.12
455.955	591.12
456.175	553.12
456.395	520.12
456.616	529.12
456.836	524.12
457.056	526.12
457.276	512.12
457.497	526.12
457.717	535.12
457.937	545.12
458.157	537.12
458.377	574.12
458.598	585.12
458.818	648.12
459.038	720.12
459.258	766.12
459.478	634.12
459.698	628.12
459.918	605.12
460.138	609.12
460.358	599.12
460.578	602.12
460.798	593.12
461.018	620.12
461.238	609.12
461.458	616.12
461.678	624.12
461.898	605.12
462.118	590.12
462.338	624.12
462.558	630.12
462.777	645.12
462.997	650.12
463.217	673.12
463.437	693.12
463.657	640.12
463.876	650.12
464.096	633.12
464.316	642.12
464.536	664.12
464.755	655.12
464.975	628.12
465.195	685.12
465.414	755.12
465.634	706.12
465.854	656.12
466.073	616.12
466.293	577.12
466.512	599.12
466.732	579.12
466.951	582.12
467.171	582.12
467.391	596.12
467.61	600.12
467.829	593.12
468.049	566.12
468.268	584.12
468.488	585.12
468.707	582.12
468.927	587.12
469.146	557.12
469.365	572.12
469.585	578.12
469.804	581.12
470.023	594.12
470.243	571.12
470.462	615.12
470.681	632.12
470.901	597.12
471.12	588.12
471.339	596.12
471.558	580.12
471.777	595.12
471.997	562.12
472.216	568.12
472.435	589.12
472.654	566.12
472.873	589.12
473.092	572.12
473.311	596.12
473.53	587.12
473.749	584.12
473.968	611.12
474.187	763.12
474.406	819.12
474.625	682.12
474.844	628.12
475.063	608.12
475.282	583.12
475.501	611.12
475.72	586.12
475.939	596.12
476.158	597.12
476.377	605.12
476.596	610.12
476.814	601.12
477.033	615.12
477.252	614.12
477.471	609.12
477.69	626.12
477.908	650.12
478.127	667.12
478.346	636.12
478.564	628.12
478.783	664.12
479.002	680.12
479.22	663.12
479.439	683.12
479.658	708.12
479.876	712.12
480.095	703.12
480.313	748.12
480.532	741.12
480.751	730.12
480.969	723.12
481.188	746.12
481.406	776.12
481.624	710.12
481.843	701.12
482.061	691.12
482.28	692.12
482.498	690.12
482.717	681.12
482.935	672.12
483.153	692.12
483.372	696.12
483.59	681.12
483.808	674.12
484.027	668.12
484.245	694.12
484.463	696.12
484.681	702.12
484.9	676.12
485.118	706.12
485.336	726.12
485.554	705.12
485.772	690.12
485.99	722.12
486.209	708.12
486.427	744.12
486.645	713.12
486.863	750.12
487.081	733.12
487.299	743.12
487.517	713.12
487.735	737.12
487.953	700.12
488.171	759.12
488.389	737.12
488.607	719.12
488.825	771.12
489.043	744.12
489.261	745.12
489.479	753.12
489.696	783.12
489.914	771.12
490.132	768.12
490.35	756.12
490.568	791.12
490.786	782.12
491.003	776.12
491.221	818.12
491.439	847.12
491.657	857.12
491.874	827.12
492.092	839.12
492.31	874.12
492.527	835.12
492.745	869.12
492.963	873.12
493.18	843.12
493.398	857.12
493.615	862.12
493.833	860.12
494.05	856.12
494.268	881.12
494.485	882.12
494.703	878.12
494.92	885.12
495.138	877.12
495.355	891.12
495.573	870.12
495.79	871.12
496.008	886.12
496.225	895.12
496.442	890.12
496.66	912.12
496.877	880.12
497.094	880.12
497.312	915.12
497.529	933.12
497.746	941.12
497.963	946.12
498.181	978.12
498.398	976.12
498.615	1004.12
498.832	1022.12
499.049	1052.12
499.267	1062.12
499.484	1092.12
499.701	1128.12
499.918	1162.12
500.135	1217.12
500.352	1246.12
500.569	1286.12
500.786	1253.12
501.003	1269.12
501.22	1205.12
501.437	1170.12
501.654	1168.12
501.871	1166.12
502.088	1102.12
502.305	1031.12
502.522	1056.12
502.739	1014.12
502.956	964.12
503.172	960.12
503.389	948.12
503.606	956.12
503.823	954.12
504.04	927.12
504.256	906.12
504.473	883.12
504.69	904.12
504.907	873.12
505.123	876.12
505.34	882.12
505.557	876.12
505.773	834.12
505.99	868.12
506.207	858.12
506.423	858.12
506.64	837.12
506.856	828.12
507.073	816.12
507.289	816.12
507.506	821.12
507.722	841.12
507.939	864.12
508.155	851.12
508.372	826.12
508.588	840.12
508.805	806.12
509.021	797.12
509.238	841.12
509.454	804.12
509.67	801.12
509.887	793.12
510.103	790.12
510.319	816.12
510.536	951.12
510.752	1488.12
510.968	1258.12
511.184	830.12
511.401	800.12
511.617	790.12
511.833	766.12
512.049	769.12
512.265	778.12
512.481	740.12
512.698	745.12
512.914	740.12
513.13	745.12
513.346	739.12
513.562	765.12
513.778	792.12
513.994	784.12
514.21	775.12
514.426	792.12
514.642	850.12
514.858	893.12
515.074	950.12
515.29	1074.12
515.506	1533.12
515.721	1324.12
515.937	933.12
516.153	869.12
516.369	840.12
516.585	830.12
516.801	794.12
517.016	801.12
517.232	802.12
517.448	806.12
517.664	812.12
517.879	797.12
518.095	784.12
518.311	802.12
518.527	785.12
518.742	796.12
518.958	776.12
519.173	792.12
519.389	784.12
519.605	771.12
519.82	783.12
520.036	766.12
520.251	840.12
520.467	848.12
520.682	833.12
520.898	824.12
521.113	862.12
521.329	924.12
521.544	1003.12
521.76	1251.12
521.975	1985.12
522.19	1988.12
522.406	1142.12
522.621	874.12
522.836	798.12
523.052	778.12
523.267	760.12
523.482	719.12
523.698	702.12
523.913	692.12
524.128	716.12
524.343	688.12
524.559	654.12
524.774	659.12
524.989	654.12
525.204	676.12
525.419	676.12
525.634	675.12
525.849	664.12
526.064	641.12
526.28	636.12
526.495	642.12
526.71	655.12
526.925	650.12
527.14	630.12
527.355	636.12
527.57	650.12
527.785	637.12
527.999	635.12
528.214	621.12
528.429	650.12
528.644	631.12
528.859	636.12
529.074	636.12
529.289	652.12
529.503	732.12
529.718	741.12
529.933	674.12
530.148	644.12
530.363	621.12
530.577	621.12
530.792	628.12
531.007	626.12
531.221	636.12
531.436	614.12
531.651	621.12
531.865	613.12
532.08	620.12
532.295	609.12
532.509	605.12
532.724	612.12
532.938	608.12
533.153	597.12
533.367	614.12
533.582	585.12
533.796	589.12
534.011	582.12
534.225	594.12
534.44	581.12
534.654	573.12
534.868	589.12
535.083	595.12
535.297	585.12
535.511	596.12
535.726	595.12
535.94	601.12
536.154	625.12
536.369	607.12
536.583	588.12
536.797	576.12
537.011	589.12
537.225	569.12
537.44	569.12
537.654	570.12
537.868	562.12
538.082	602.12
538.296	575.12
538.51	580.12
538.724	583.12
538.938	580.12
539.153	595.12
539.367	576.12
539.581	575.12
539.795	582.12
540.009	565.12
540.222	572.12
540.436	571.12
540.65	577.12
540.864	570.12
541.078	579.12
541.292	592.12
541.506	571.12
541.72	573.12
541.934	582.12
542.147	562.12
542.361	566.12
542.575	547.12
542.789	553.12
543.002	574.12
543.216	560.12
543.43	574.12
543.644	569.12
543.857	550.12
544.071	580.12
544.285	568.12
544.498	586.12
544.712	555.12
544.925	564.12
545.139	562.12
545.352	548.12
545.566	536.12
545.779	560.12
545.993	555.12
546.206	555.12
546.42	581.12
546.633	558.12
546.847	548.12
547.06	552.12
547.274	547.12
547.487	526.12
547.7	536.12
547.914	557.12
548.127	567.12
548.34	528.12
548.554	542.12
548.767	550.12
548.98	540.12
549.193	536.12
549.407	570.12
549.62	524.12
549.833	557.12
550.046	536.12
550.259	545.12
550.473	545.12
550.686	540.12
550.899	535.12
551.112	531.12
551.325	518.12
551.538	531.12
551.751	518.12
551.964	523.12
552.177	530.12
552.39	526.12
552.603	517.12
552.816	558.12
553.029	544.12
553.242	529.12
553.455	562.12
553.667	541.12
553.88	555.12
554.093	560.12
554.306	570.12
554.519	534.12
554.732	550.12
554.944	532.12
555.157	496.12
555.37	518.12
555.583	535.12
555.795	518.12
556.008	515.12
556.221	500.12
556.433	514.12
556.646	502.12
556.859	508.12
557.071	478.12
557.284	512.12
557.496	489.12
557.709	489.12
557.921	497.12
558.134	466.12
558.346	476.12
558.559	480.12
558.771	499.12
558.984	470.12
559.196	476.12
559.409	464.12
559.621	464.12
559.833	477.12
560.046	476.12
560.258	485.12
560.47	474.12
560.683	496.12
560.895	492.12
561.107	476.12
561.32	488.12
561.532	465.12
561.744	489.12
561.956	482.12
562.168	477.12
562.381	493.12
562.593	455.12
562.805	471.12
563.017	487.12
563.229	474.12
563.441	475.12
563.653	499.12
563.865	485.12
564.077	487.12
564.289	483.12
564.501	488.12
564.713	497.12
564.925	513.12
565.137	526.12
565.349	541.12
565.561	528.12
565.773	540.12
565.985	533.12
566.197	574.12
566.408	563.12
566.62	543.12
566.832	571.12
567.044	587.12
567.255	577.12
567.467	600.12
567.679	618.12
567.891	616.12
568.102	601.12
568.314	613.12
568.526	582.12
568.737	555.12
568.949	558.12
569.161	539.12
569.372	532.12
569.584	531.12
569.795	516.12
570.007	506.12
570.218	542.12
570.43	527.12
570.641	466.12
570.853	458.12
571.064	477.12
571.276	471.12
571.487	446.12
571.698	448.12
571.91	453.12
572.121	441.12
572.333	446.12
572.544	421.12
572.755	413.12
572.966	412.12
573.178	430.12
573.389	423.12
573.6	400.12
573.811	413.12
574.023	420.12
574.234	421.12
574.445	422.12
574.656	422.12
574.867	413.12
575.078	396.12
575.289	398.12
575.501	405.12
575.712	412.12
575.923	412.12
576.134	419.12
576.345	388.12
576.556	419.12
576.767	407.12
576.978	388.12
577.188	387.12
577.399	393.12
577.61	404.12
577.821	386.12
578.032	398.12
578.243	442.12
578.454	674.12
578.665	537.12
578.875	408.12
579.086	392.12
579.297	390.12
579.508	372.12
579.718	394.12
579.929	381.12
580.14	388.12
580.35	359.12
580.561	373.12
580.772	372.12
580.982	372.12
581.193	353.12
581.403	370.12
581.614	358.12
581.825	395.12
582.035	384.12
582.246	374.12
582.456	364.12
582.667	376.12
582.877	374.12
583.087	361.12
583.298	378.12
583.508	371.12
583.719	378.12
583.929	358.12
584.139	380.12
584.35	348.12
584.56	375.12
584.77	355.12
584.981	363.12
585.191	357.12
585.401	360.12
585.611	352.12
585.821	370.12
586.032	366.12
586.242	363.12
586.452	352.12
586.662	354.12
586.872	362.12
587.082	369.12
587.292	355.12
587.502	357.12
587.713	338.12
587.923	365.12
588.133	357.12
588.343	337.12
588.553	342.12
588.762	357.12
588.972	361.12
589.182	368.12
589.392	358.12
589.602	359.12
589.812	356.12
590.022	361.12
590.232	338.12
590.441	358.12
590.651	369.12
590.861	356.12
591.071	357.12
591.281	353.12
591.49	332.12
591.7	362.12
591.91	364.12
592.119	356.12
592.329	347.12
592.539	392.12
592.748	374.12
592.958	380.12
593.167	385.12
593.377	362.12
593.587	376.12
593.796	364.12
594.006	362.12
594.215	379.12
594.424	384.12
594.634	361.12
594.843	368.12
595.053	385.12
595.262	366.12
595.472	362.12
595.681	356.12
595.89	349.12
596.1	352.12
596.309	334.12
596.518	347.12
596.727	347.12
596.937	339.12
597.146	342.12
597.355	337.12
597.564	323.12
597.774	318.12
597.983	354.12
598.192	344.12
598.401	334.12
598.61	332.12
598.819	322.12
599.028	327.12
599.237	308.12
599.446	310.12
599.655	314.12
599.864	289.12
600.073	303.12
600.282	328.12
600.491	306.12
600.7	305.12
600.909	315.12
601.118	310.12
601.327	295.12
601.536	308.12
601.745	280.12
601.953	311.12
602.162	296.12
602.371	298.12
602.58	296.12
602.789	301.12
602.997	295.12
603.206	310.12
603.415	294.12
603.623	306.12
603.832	297.12
604.041	312.12
604.249	290.12
604.458	317.12
604.666	280.12
604.875	284.12
605.084	285.12
605.292	286.12
605.501	295.12
605.709	288.12
605.918	293.12
606.126	298.12
606.334	300.12
606.543	293.12
606.751	276.12
606.96	292.12
607.168	290.12
607.376	286.12
607.585	284.12
607.793	280.12
608.001	274.12
608.21	292.12
608.418	278.12
608.626	272.12
608.834	285.12
609.043	289.12
609.251	301.12
609.459	285.12
609.667	272.12
609.875	280.12
610.083	279.12
610.291	273.12
610.499	281.12
610.707	299.12
610.916	291.12
611.124	284.12
611.332	278.12
611.54	282.12
611.748	276.12
611.955	270.12
612.163	274.12
612.371	281.12
612.579	270.12
612.787	265.12
612.995	272.12
613.203	273.12
613.411	284.12
613.618	266.12
613.826	280.12
614.034	282.12
614.242	268.12
614.449	279.12
614.657	260.12
614.865	280.12
615.072	281.12
615.28	289.12
615.488	285.12
615.695	270.12
615.903	285.12
616.111	264.12
616.318	283.12
616.526	249.12
616.733	282.12
616.941	276.12
617.148	274.12
617.356	278.12
617.563	277.12
617.771	277.12
617.978	266.12
618.185	263.12
618.393	269.12
618.6	267.12
618.807	269.12
619.015	272.12
619.222	249.12
619.429	260.12
619.637	264.12
619.844	275.12
620.051	258.12
620.258	252.12
620.466	250.12
620.673	240.12
620.88	244.12
621.087	258.12
621.294	276.12
621.501	252.12
621.708	269.12
621.915	263.12
622.122	251.12
622.329	256.12
622.536	254.12
622.743	252.12
622.95	244.12
623.157	239.12
623.364	262.12
623.571	283.12
623.778	254.12
623.985	239.12
624.192	264.12
624.399	217.12
624.606	243.12
624.812	237.12
625.019	240.12
625.226	252.12
625.433	246.12
625.639	225.12
625.846	247.12
626.053	231.12
626.259	238.12
626.466	241.12
626.673	235.12
626.879	236.12
627.086	237.12
627.293	241.12
627.499	238.12
627.706	250.12
627.912	235.12
628.119	237.12
628.325	212.12
628.532	230.12
628.738	241.12
628.945	220.12
629.151	224.12
629.357	230.12
629.564	226.12
629.77	244.12
629.976	227.12
630.183	220.12
630.389	206.12
630.595	234.12
630.802	237.12
631.008	229.12
631.214	237.12
631.42	233.12
631.627	212.12
631.833	220.12
632.039	231.12
632.245	216.12
632.451	221.12
632.657	204.12
632.863	211.12
633.069	229.12
633.275	221.12
633.481	217.12
633.688	200.12
633.893	200.12
634.099	208.12
634.305	220.12
634.511	215.12
634.717	213.12
634.923	217.12
635.129	215.12
635.335	204.12
635.541	219.12
635.747	217.12
635.952	204.12
636.158	185.12
636.364	211.12
636.57	201.12
636.775	202.12
636.981	186.12
637.187	212.12
637.392	199.12
637.598	197.12
637.804	190.12
638.009	211.12
638.215	208.12
638.421	205.12
638.626	192.12
638.832	203.12
639.037	206.12
639.243	198.12
639.448	192.12
639.654	194.12
639.859	195.12
640.065	182.12
640.27	191.12
640.475	174.12
640.681	212.12
640.886	197.12
641.091	205.12
641.297	188.12
641.502	182.12
641.707	194.12
641.913	210.12
642.118	204.12
642.323	177.12
642.528	192.12
642.733	190.12
642.939	200.12
643.144	186.12
643.349	191.12
643.554	180.12
643.759	188.12
643.964	181.12
644.169	200.12
644.374	166.12
644.579	171.12
644.784	182.12
644.989	189.12
645.194	183.12
645.399	174.12
645.604	172.12
645.809	202.12
646.014	181.12
646.219	203.12
646.423	177.12
646.628	197.12
646.833	173.12
647.038	178.12
647.243	196.12
647.447	181.12
647.652	192.12
647.857	191.12
648.062	193.12
648.266	209.12
648.471	194.12
648.676	202.12
648.88	193.12
649.085	196.12
649.289	179.12
649.494	216.12
649.698	212.12
649.903	208.12
650.107	190.12
650.312	176.12
650.516	180.12
650.721	181.12
650.925	165.12
651.13	171.12
651.334	159.12
651.539	168.12
651.743	146.12
651.947	169.12
652.152	172.12
652.356	159.12
652.56	145.12
652.764	146.12
652.969	161.12
653.173	167.12
653.377	151.12
653.581	142.12
653.785	149.12
653.99	155.12
654.194	166.12
654.398	147.12
654.602	148.12
654.806	150.12
655.01	141.12
655.214	160.12
655.418	148.12
655.622	150.12
655.826	151.12
656.03	152.12
656.234	147.12
656.438	137.12
656.642	148.12
656.846	146.12
657.049	138.12
657.253	120.12
657.457	125.12
657.661	138.12
657.865	119.12
658.068	127.12
658.272	116.12
658.476	113.12
658.68	112.12
658.883	115.12
659.087	94.12
659.291	108.12
659.494	97.12
659.698	93.12
659.901	99.12
660.105	113.12
660.309	78.12
660.512	102.12
660.716	97.12
660.919	96.12
661.123	100.12
661.326	84.12
661.53	86.12
661.733	106.12
661.936	90.12
662.14	97.12
662.343	76.12
662.546	92.12
662.75	90.12
662.953	92.12
663.156	93.12
663.36	71.12
663.563	96.12
663.766	82.12
663.969	82.12
664.173	85.12
664.376	84.12
664.579	74.12
664.782	93.12
664.985	73.12
665.188	74.12
665.391	96.12
665.594	83.12
665.797	77.12
666	78.12
666.203	86.12
666.406	82.12
666.609	68.12
666.812	82.12
667.015	80.12
667.218	86.12
667.421	93.12
667.624	77.12
667.827	100.12
668.03	74.12
668.232	77.12
668.435	72.12
668.638	87.12
668.841	98.12
669.043	66.12
669.246	77.12
669.449	79.12
669.651	85.12
669.854	83.12
670.057	99.12
670.259	85.12
670.462	81.12
670.665	79.12
670.867	63.12
671.07	80.12
671.272	75.12
671.475	71.12
671.677	78.12
671.88	84.12
672.082	66.12
672.284	84.12
672.487	93.12
672.689	93.12
672.892	86.12
