Data from 1988.PennyLincolnUp.Lamp.En5.5.200Scan.071819.P2_HRD10591_17-21-18-971.txt Node
Date: Thu Jul 18 17:21:18 EDT 2019
User: cochatt
Spectrometer: HR+D1059
Trigger mode: 1
Integration Time (sec): 1.000000E-1
Scans to average: 1
Electric dark correction enabled: true
Nonlinearity correction enabled: false
Boxcar width: 0
XAxis mode: Wavelengths
Number of Pixels in Spectrum: 2048
>>>>>Begin Spectral Data<<<<<
223.165	-18.06
223.4	-18.06
223.635	-18.06
223.869	-5.06
224.104	-16.06
224.338	-12.06
224.573	-18.06
224.808	-19.06
225.042	-4.06
225.277	-17.06
225.511	8.94
225.746	-1.06
225.98	0.94
226.215	10.94
226.449	15.94
226.683	14.94
226.918	26.94
227.152	31.94
227.387	24.94
227.621	37.94
227.856	43.94
228.09	43.94
228.324	45.94
228.559	66.94
228.793	62.94
229.027	96.94
229.262	116.94
229.496	137.94
229.73	145.94
229.964	172.94
230.199	142.94
230.433	118.94
230.667	121.94
230.901	107.94
231.136	132.94
231.37	121.94
231.604	122.94
231.838	112.94
232.072	100.94
232.306	119.94
232.541	124.94
232.775	117.94
233.009	129.94
233.243	123.94
233.477	118.94
233.711	126.94
233.945	122.94
234.179	121.94
234.413	123.94
234.647	123.94
234.881	115.94
235.115	137.94
235.349	128.94
235.583	136.94
235.817	123.94
236.051	142.94
236.285	135.94
236.519	144.94
236.753	138.94
236.987	154.94
237.221	208.94
237.455	273.94
237.689	220.94
237.922	154.94
238.156	136.94
238.39	137.94
238.624	131.94
238.858	142.94
239.091	131.94
239.325	145.94
239.559	122.94
239.793	133.94
240.027	147.94
240.26	152.94
240.494	171.94
240.728	169.94
240.961	169.94
241.195	158.94
241.429	141.94
241.662	148.94
241.896	154.94
242.13	148.94
242.363	146.94
242.597	142.94
242.83	156.94
243.064	150.94
243.298	155.94
243.531	148.94
243.765	140.94
243.998	152.94
244.232	161.94
244.465	162.94
244.699	156.94
244.932	139.94
245.166	147.94
245.399	134.94
245.633	154.94
245.866	176.94
246.099	171.94
246.333	165.94
246.566	160.94
246.8	154.94
247.033	166.94
247.266	179.94
247.5	174.94
247.733	180.94
247.966	191.94
248.2	185.94
248.433	189.94
248.666	182.94
248.899	202.94
249.133	223.94
249.366	223.94
249.599	211.94
249.832	194.94
250.066	186.94
250.299	184.94
250.532	215.94
250.765	230.94
250.998	235.94
251.231	251.94
251.465	240.94
251.698	205.94
251.931	216.94
252.164	221.94
252.397	212.94
252.63	217.94
252.863	215.94
253.096	228.94
253.329	245.94
253.562	247.94
253.795	233.94
254.028	247.94
254.261	234.94
254.494	241.94
254.727	280.94
254.96	306.94
255.193	306.94
255.426	280.94
255.659	281.94
255.892	241.94
256.124	256.94
256.357	262.94
256.59	244.94
256.823	229.94
257.056	219.94
257.289	226.94
257.521	221.94
257.754	193.94
257.987	212.94
258.22	240.94
258.452	230.94
258.685	221.94
258.918	241.94
259.151	229.94
259.383	245.94
259.616	235.94
259.849	238.94
260.081	273.94
260.314	274.94
260.547	274.94
260.779	266.94
261.012	276.94
261.244	268.94
261.477	240.94
261.71	241.94
261.942	237.94
262.175	256.94
262.407	254.94
262.64	229.94
262.872	237.94
263.105	254.94
263.337	242.94
263.57	225.94
263.802	230.94
264.035	241.94
264.267	219.94
264.499	232.94
264.732	224.94
264.964	229.94
265.197	238.94
265.429	242.94
265.661	238.94
265.894	253.94
266.126	240.94
266.358	222.94
266.591	232.94
266.823	265.94
267.055	247.94
267.287	262.94
267.52	259.94
267.752	238.94
267.984	259.94
268.216	252.94
268.448	264.94
268.681	265.94
268.913	258.94
269.145	284.94
269.377	306.94
269.609	298.94
269.841	308.94
270.073	294.94
270.306	316.94
270.538	338.94
270.77	348.94
271.002	333.94
271.234	312.94
271.466	309.94
271.698	348.94
271.93	340.94
272.162	351.94
272.394	354.94
272.626	337.94
272.858	314.94
273.09	314.94
273.322	294.94
273.553	298.94
273.785	299.94
274.017	304.94
274.249	286.94
274.481	301.94
274.713	307.94
274.945	290.94
275.176	298.94
275.408	300.94
275.64	296.94
275.872	280.94
276.104	287.94
276.335	277.94
276.567	310.94
276.799	321.94
277.031	356.94
277.262	373.94
277.494	354.94
277.726	333.94
277.957	322.94
278.189	312.94
278.421	308.94
278.652	306.94
278.884	305.94
279.115	300.94
279.347	298.94
279.579	288.94
279.81	287.94
280.042	299.94
280.273	286.94
280.505	306.94
280.736	281.94
280.968	293.94
281.199	294.94
281.431	293.94
281.662	303.94
281.894	284.94
282.125	300.94
282.356	304.94
282.588	358.94
282.819	336.94
283.051	323.94
283.282	307.94
283.513	314.94
283.745	301.94
283.976	299.94
284.207	322.94
284.439	321.94
284.67	317.94
284.901	309.94
285.132	297.94
285.364	301.94
285.595	301.94
285.826	306.94
286.057	308.94
286.288	317.94
286.52	326.94
286.751	317.94
286.982	309.94
287.213	312.94
287.444	298.94
287.675	328.94
287.906	329.94
288.138	350.94
288.369	345.94
288.6	346.94
288.831	340.94
289.062	318.94
289.293	323.94
289.524	333.94
289.755	322.94
289.986	307.94
290.217	309.94
290.448	322.94
290.679	328.94
290.91	331.94
291.141	324.94
291.371	331.94
291.602	314.94
291.833	307.94
292.064	314.94
292.295	327.94
292.526	332.94
292.757	320.94
292.987	325.94
293.218	330.94
293.449	337.94
293.68	330.94
293.91	329.94
294.141	337.94
294.372	333.94
294.603	341.94
294.833	331.94
295.064	320.94
295.295	328.94
295.525	315.94
295.756	337.94
295.987	361.94
296.217	384.94
296.448	370.94
296.679	328.94
296.909	336.94
297.14	347.94
297.37	352.94
297.601	333.94
297.831	348.94
298.062	351.94
298.292	355.94
298.523	351.94
298.753	340.94
298.984	352.94
299.214	349.94
299.445	356.94
299.675	337.94
299.905	335.94
300.136	350.94
300.366	352.94
300.597	344.94
300.827	350.94
301.057	360.94
301.288	368.94
301.518	378.94
301.748	354.94
301.979	366.94
302.209	349.94
302.439	363.94
302.669	371.94
302.9	386.94
303.13	366.94
303.36	363.94
303.59	372.94
303.82	380.94
304.051	373.94
304.281	385.94
304.511	384.94
304.741	350.94
304.971	360.94
305.201	374.94
305.431	380.94
305.661	380.94
305.891	368.94
306.121	384.94
306.352	376.94
306.582	376.94
306.812	392.94
307.042	397.94
307.272	388.94
307.502	367.94
307.731	378.94
307.961	382.94
308.191	384.94
308.421	386.94
308.651	393.94
308.881	387.94
309.111	371.94
309.341	383.94
309.571	402.94
309.8	405.94
310.03	416.94
310.26	431.94
310.49	434.94
310.72	432.94
310.949	452.94
311.179	456.94
311.409	424.94
311.639	419.94
311.868	414.94
312.098	416.94
312.328	415.94
312.557	454.94
312.787	473.94
313.017	476.94
313.246	443.94
313.476	421.94
313.706	443.94
313.935	456.94
314.165	424.94
314.394	469.94
314.624	448.94
314.853	452.94
315.083	439.94
315.312	419.94
315.542	416.94
315.771	428.94
316.001	438.94
316.23	426.94
316.46	416.94
316.689	437.94
316.919	448.94
317.148	463.94
317.377	450.94
317.607	434.94
317.836	451.94
318.065	434.94
318.295	444.94
318.524	429.94
318.753	443.94
318.983	424.94
319.212	433.94
319.441	472.94
319.67	453.94
319.9	425.94
320.129	442.94
320.358	444.94
320.587	436.94
320.816	472.94
321.046	455.94
321.275	468.94
321.504	465.94
321.733	477.94
321.962	469.94
322.191	493.94
322.42	491.94
322.649	537.94
322.878	527.94
323.108	541.94
323.337	541.94
323.566	571.94
323.795	610.94
324.024	677.94
324.253	821.94
324.482	1170.94
324.71	1853.94
324.939	2755.94
325.168	2386.94
325.397	1197.94
325.626	811.94
325.855	658.94
326.084	603.94
326.313	570.94
326.542	588.94
326.77	629.94
326.999	754.94
327.228	1066.94
327.457	1666.94
327.686	2050.94
327.914	1342.94
328.143	853.94
328.372	731.94
328.6	687.94
328.829	644.94
329.058	637.94
329.287	691.94
329.515	661.94
329.744	597.94
329.972	572.94
330.201	572.94
330.43	613.94
330.658	656.94
330.887	724.94
331.115	681.94
331.344	617.94
331.572	572.94
331.801	588.94
332.03	569.94
332.258	530.94
332.486	527.94
332.715	524.94
332.943	517.94
333.172	558.94
333.4	536.94
333.629	547.94
333.857	561.94
334.085	552.94
334.314	534.94
334.542	566.94
334.771	557.94
334.999	554.94
335.227	543.94
335.455	528.94
335.684	521.94
335.912	516.94
336.14	514.94
336.369	508.94
336.597	518.94
336.825	516.94
337.053	517.94
337.281	519.94
337.51	505.94
337.738	497.94
337.966	503.94
338.194	520.94
338.422	550.94
338.65	522.94
338.878	489.94
339.106	505.94
339.334	487.94
339.562	485.94
339.79	500.94
340.018	489.94
340.246	487.94
340.474	533.94
340.702	500.94
340.93	497.94
341.158	493.94
341.386	516.94
341.614	543.94
341.842	490.94
342.07	518.94
342.298	491.94
342.526	505.94
342.754	480.94
342.981	475.94
343.209	465.94
343.437	478.94
343.665	479.94
343.893	497.94
344.12	527.94
344.348	518.94
344.576	530.94
344.804	538.94
345.031	513.94
345.259	528.94
345.487	534.94
345.714	536.94
345.942	501.94
346.17	496.94
346.397	499.94
346.625	486.94
346.853	486.94
347.08	481.94
347.308	520.94
347.535	504.94
347.763	527.94
347.99	501.94
348.218	488.94
348.445	487.94
348.673	512.94
348.9	484.94
349.128	498.94
349.355	466.94
349.583	457.94
349.81	468.94
350.037	473.94
350.265	477.94
350.492	472.94
350.72	478.94
350.947	477.94
351.174	514.94
351.402	497.94
351.629	481.94
351.856	489.94
352.083	521.94
352.311	523.94
352.538	514.94
352.765	523.94
352.992	514.94
353.22	499.94
353.447	481.94
353.674	487.94
353.901	483.94
354.128	469.94
354.355	470.94
354.583	478.94
354.81	446.94
355.037	475.94
355.264	452.94
355.491	460.94
355.718	451.94
355.945	462.94
356.172	448.94
356.399	466.94
356.626	470.94
356.853	441.94
357.08	450.94
357.307	428.94
357.534	454.94
357.761	473.94
357.988	459.94
358.215	468.94
358.441	471.94
358.668	474.94
358.895	480.94
359.122	475.94
359.349	455.94
359.576	490.94
359.802	517.94
360.029	544.94
360.256	542.94
360.483	533.94
360.709	518.94
360.936	497.94
361.163	493.94
361.39	512.94
361.616	509.94
361.843	496.94
362.07	492.94
362.296	488.94
362.523	485.94
362.749	491.94
362.976	476.94
363.203	482.94
363.429	483.94
363.656	468.94
363.882	458.94
364.109	481.94
364.335	468.94
364.562	471.94
364.788	480.94
365.015	461.94
365.241	455.94
365.468	469.94
365.694	493.94
365.92	485.94
366.147	479.94
366.373	464.94
366.599	467.94
366.826	468.94
367.052	475.94
367.278	465.94
367.505	462.94
367.731	474.94
367.957	461.94
368.184	488.94
368.41	482.94
368.636	486.94
368.862	490.94
369.089	491.94
369.315	492.94
369.541	465.94
369.767	483.94
369.993	461.94
370.219	482.94
370.445	467.94
370.672	472.94
370.898	462.94
371.124	462.94
371.35	460.94
371.576	468.94
371.802	461.94
372.028	460.94
372.254	456.94
372.48	483.94
372.706	472.94
372.932	456.94
373.158	470.94
373.384	459.94
373.61	461.94
373.835	465.94
374.061	467.94
374.287	476.94
374.513	476.94
374.739	463.94
374.965	475.94
375.191	488.94
375.416	496.94
375.642	480.94
375.868	466.94
376.094	482.94
376.319	472.94
376.545	458.94
376.771	462.94
376.997	478.94
377.222	475.94
377.448	484.94
377.674	472.94
377.899	452.94
378.125	496.94
378.35	462.94
378.576	456.94
378.802	473.94
379.027	464.94
379.253	460.94
379.478	461.94
379.704	487.94
379.929	476.94
380.155	468.94
380.38	471.94
380.606	463.94
380.831	483.94
381.057	480.94
381.282	489.94
381.507	475.94
381.733	493.94
381.958	488.94
382.184	498.94
382.409	479.94
382.634	475.94
382.86	488.94
383.085	466.94
383.31	483.94
383.535	499.94
383.761	483.94
383.986	482.94
384.211	491.94
384.436	501.94
384.662	496.94
384.887	500.94
385.112	516.94
385.337	511.94
385.562	507.94
385.787	497.94
386.013	526.94
386.238	517.94
386.463	530.94
386.688	535.94
386.913	504.94
387.138	516.94
387.363	519.94
387.588	511.94
387.813	548.94
388.038	547.94
388.263	518.94
388.488	518.94
388.713	525.94
388.938	539.94
389.163	521.94
389.387	513.94
389.612	547.94
389.837	526.94
390.062	521.94
390.287	522.94
390.512	538.94
390.736	529.94
390.961	523.94
391.186	527.94
391.411	540.94
391.636	545.94
391.86	545.94
392.085	559.94
392.31	560.94
392.534	545.94
392.759	544.94
392.984	535.94
393.208	556.94
393.433	529.94
393.658	540.94
393.882	538.94
394.107	521.94
394.331	528.94
394.556	561.94
394.78	527.94
395.005	539.94
395.229	554.94
395.454	557.94
395.678	570.94
395.903	567.94
396.127	584.94
396.352	592.94
396.576	587.94
396.801	545.94
397.025	542.94
397.249	573.94
397.474	569.94
397.698	564.94
397.922	590.94
398.147	604.94
398.371	589.94
398.595	606.94
398.82	588.94
399.044	618.94
399.268	645.94
399.492	666.94
399.717	696.94
399.941	734.94
400.165	770.94
400.389	776.94
400.613	683.94
400.837	652.94
401.062	620.94
401.286	634.94
401.51	611.94
401.734	638.94
401.958	616.94
402.182	620.94
402.406	637.94
402.63	621.94
402.854	630.94
403.078	630.94
403.302	602.94
403.526	640.94
403.75	644.94
403.974	632.94
404.198	606.94
404.422	635.94
404.645	642.94
404.869	656.94
405.093	681.94
405.317	712.94
405.541	755.94
405.765	682.94
405.988	664.94
406.212	672.94
406.436	680.94
406.66	705.94
406.883	714.94
407.107	721.94
407.331	769.94
407.555	855.94
407.778	860.94
408.002	786.94
408.226	728.94
408.449	727.94
408.673	718.94
408.896	744.94
409.12	770.94
409.344	757.94
409.567	692.94
409.791	676.94
410.014	648.94
410.238	644.94
410.461	631.94
410.685	647.94
410.908	685.94
411.132	713.94
411.355	740.94
411.578	729.94
411.802	658.94
412.025	642.94
412.249	630.94
412.472	660.94
412.695	685.94
412.919	664.94
413.142	620.94
413.365	610.94
413.589	611.94
413.812	616.94
414.035	601.94
414.258	587.94
414.482	616.94
414.705	605.94
414.928	580.94
415.151	581.94
415.374	609.94
415.597	605.94
415.821	586.94
416.044	593.94
416.267	588.94
416.49	597.94
416.713	590.94
416.936	613.94
417.159	587.94
417.382	578.94
417.605	615.94
417.828	604.94
418.051	659.94
418.274	638.94
418.497	603.94
418.72	609.94
418.943	583.94
419.166	630.94
419.389	638.94
419.611	652.94
419.834	629.94
420.057	659.94
420.28	651.94
420.503	645.94
420.726	613.94
420.948	624.94
421.171	670.94
421.394	721.94
421.617	651.94
421.839	631.94
422.062	628.94
422.285	642.94
422.507	732.94
422.73	814.94
422.953	780.94
423.175	684.94
423.398	665.94
423.621	645.94
423.843	685.94
424.066	705.94
424.288	704.94
424.511	696.94
424.733	797.94
424.956	869.94
425.178	836.94
425.401	844.94
425.623	862.94
425.846	717.94
426.068	699.94
426.291	651.94
426.513	671.94
426.735	704.94
426.958	745.94
427.18	844.94
427.402	1009.94
427.625	1124.94
427.847	971.94
428.069	825.94
428.292	700.94
428.514	671.94
428.736	627.94
428.958	642.94
429.181	615.94
429.403	628.94
429.625	629.94
429.847	650.94
430.069	766.94
430.292	736.94
430.514	667.94
430.736	648.94
430.958	658.94
431.18	621.94
431.402	591.94
431.624	570.94
431.846	573.94
432.068	579.94
432.29	592.94
432.512	589.94
432.734	591.94
432.956	601.94
433.178	630.94
433.4	607.94
433.622	599.94
433.844	597.94
434.066	593.94
434.287	588.94
434.509	606.94
434.731	616.94
434.953	629.94
435.175	627.94
435.397	672.94
435.618	694.94
435.84	706.94
436.062	846.94
436.284	940.94
436.505	798.94
436.727	706.94
436.949	662.94
437.17	636.94
437.392	607.94
437.614	646.94
437.835	681.94
438.057	788.94
438.278	918.94
438.5	942.94
438.721	1057.94
438.943	973.94
439.165	789.94
439.386	722.94
439.608	702.94
439.829	705.94
440.05	727.94
440.272	804.94
440.493	730.94
440.715	696.94
440.936	668.94
441.158	636.94
441.379	621.94
441.6	658.94
441.822	690.94
442.043	752.94
442.264	850.94
442.486	884.94
442.707	764.94
442.928	702.94
443.149	701.94
443.371	741.94
443.592	774.94
443.813	917.94
444.034	969.94
444.255	811.94
444.476	710.94
444.698	695.94
444.919	698.94
445.14	835.94
445.361	787.94
445.582	709.94
445.803	833.94
446.024	946.94
446.245	978.94
446.466	859.94
446.687	738.94
446.908	690.94
447.129	660.94
447.35	647.94
447.571	615.94
447.792	625.94
448.013	646.94
448.234	645.94
448.455	710.94
448.675	853.94
448.896	978.94
449.117	859.94
449.338	789.94
449.559	941.94
449.779	1058.94
450	852.94
450.221	706.94
450.442	656.94
450.662	638.94
450.883	621.94
451.104	640.94
451.324	613.94
451.545	590.94
451.766	587.94
451.986	563.94
452.207	560.94
452.428	524.94
452.648	542.94
452.869	550.94
453.089	562.94
453.31	602.94
453.53	592.94
453.751	572.94
453.971	560.94
454.192	587.94
454.412	567.94
454.633	550.94
454.853	566.94
455.073	557.94
455.294	589.94
455.514	684.94
455.734	651.94
455.955	576.94
456.175	549.94
456.395	533.94
456.616	522.94
456.836	519.94
457.056	526.94
457.276	488.94
457.497	537.94
457.717	523.94
457.937	539.94
458.157	546.94
458.377	542.94
458.598	578.94
458.818	651.94
459.038	757.94
459.258	750.94
459.478	661.94
459.698	609.94
459.918	596.94
460.138	594.94
460.358	626.94
460.578	609.94
460.798	591.94
461.018	620.94
461.238	616.94
461.458	602.94
461.678	588.94
461.898	614.94
462.118	626.94
462.338	645.94
462.558	643.94
462.777	629.94
462.997	656.94
463.217	654.94
463.437	658.94
463.657	643.94
463.876	661.94
464.096	676.94
464.316	650.94
464.536	665.94
464.755	661.94
464.975	652.94
465.195	695.94
465.414	755.94
465.634	715.94
465.854	644.94
466.073	608.94
466.293	618.94
466.512	579.94
466.732	582.94
466.951	592.94
467.171	582.94
467.391	579.94
467.61	553.94
467.829	585.94
468.049	598.94
468.268	586.94
468.488	570.94
468.707	584.94
468.927	562.94
469.146	580.94
469.365	561.94
469.585	581.94
469.804	565.94
470.023	569.94
470.243	581.94
470.462	589.94
470.681	621.94
470.901	610.94
471.12	588.94
471.339	597.94
471.558	584.94
471.777	576.94
471.997	584.94
472.216	584.94
472.435	589.94
472.654	580.94
472.873	581.94
473.092	577.94
473.311	577.94
473.53	593.94
473.749	614.94
473.968	635.94
474.187	746.94
474.406	790.94
474.625	654.94
474.844	617.94
475.063	589.94
475.282	580.94
475.501	608.94
475.72	610.94
475.939	590.94
476.158	615.94
476.377	594.94
476.596	598.94
476.814	609.94
477.033	612.94
477.252	667.94
477.471	624.94
477.69	649.94
477.908	635.94
478.127	660.94
478.346	660.94
478.564	664.94
478.783	629.94
479.002	661.94
479.22	688.94
479.439	696.94
479.658	689.94
479.876	737.94
480.095	722.94
480.313	737.94
480.532	745.94
480.751	737.94
480.969	725.94
481.188	753.94
481.406	775.94
481.624	730.94
481.843	701.94
482.061	700.94
482.28	690.94
482.498	698.94
482.717	677.94
482.935	699.94
483.153	681.94
483.372	692.94
483.59	692.94
483.808	699.94
484.027	704.94
484.245	694.94
484.463	676.94
484.681	679.94
484.9	706.94
485.118	704.94
485.336	681.94
485.554	728.94
485.772	717.94
485.99	736.94
486.209	707.94
486.427	715.94
486.645	729.94
486.863	772.94
487.081	752.94
487.299	749.94
487.517	738.94
487.735	737.94
487.953	724.94
488.171	749.94
488.389	748.94
488.607	744.94
488.825	733.94
489.043	744.94
489.261	758.94
489.479	743.94
489.696	768.94
489.914	756.94
490.132	766.94
490.35	764.94
490.568	762.94
490.786	776.94
491.003	821.94
491.221	822.94
491.439	807.94
491.657	837.94
491.874	860.94
492.092	843.94
492.31	855.94
492.527	860.94
492.745	827.94
492.963	856.94
493.18	851.94
493.398	864.94
493.615	876.94
493.833	862.94
494.05	890.94
494.268	864.94
494.485	882.94
494.703	862.94
494.92	881.94
495.138	896.94
495.355	886.94
495.573	884.94
495.79	890.94
496.008	910.94
496.225	842.94
496.442	907.94
496.66	900.94
496.877	911.94
497.094	915.94
497.312	907.94
497.529	900.94
497.746	918.94
497.963	939.94
498.181	973.94
498.398	985.94
498.615	1006.94
498.832	993.94
499.049	1010.94
499.267	1030.94
499.484	1092.94
499.701	1142.94
499.918	1168.94
500.135	1218.94
500.352	1255.94
500.569	1268.94
500.786	1264.94
501.003	1273.94
501.22	1234.94
501.437	1192.94
501.654	1180.94
501.871	1164.94
502.088	1120.94
502.305	1063.94
502.522	1045.94
502.739	994.94
502.956	977.94
503.172	968.94
503.389	952.94
503.606	963.94
503.823	922.94
504.04	920.94
504.256	918.94
504.473	924.94
504.69	898.94
504.907	884.94
505.123	871.94
505.34	855.94
505.557	833.94
505.773	871.94
505.99	861.94
506.207	839.94
506.423	850.94
506.64	861.94
506.856	837.94
507.073	836.94
507.289	838.94
507.506	839.94
507.722	832.94
507.939	863.94
508.155	856.94
508.372	828.94
508.588	816.94
508.805	824.94
509.021	817.94
509.238	813.94
509.454	833.94
509.67	820.94
509.887	804.94
510.103	820.94
510.319	845.94
510.536	925.94
510.752	1454.94
510.968	1247.94
511.184	852.94
511.401	797.94
511.617	794.94
511.833	778.94
512.049	756.94
512.265	749.94
512.481	766.94
512.698	757.94
512.914	762.94
513.13	754.94
513.346	780.94
513.562	758.94
513.778	747.94
513.994	772.94
514.21	800.94
514.426	800.94
514.642	855.94
514.858	912.94
515.074	938.94
515.29	1079.94
515.506	1520.94
515.721	1296.94
515.937	911.94
516.153	845.94
516.369	832.94
516.585	813.94
516.801	814.94
517.016	802.94
517.232	808.94
517.448	811.94
517.664	809.94
517.879	793.94
518.095	824.94
518.311	806.94
518.527	803.94
518.742	781.94
518.958	793.94
519.173	783.94
519.389	770.94
519.605	774.94
519.82	781.94
520.036	790.94
520.251	813.94
520.467	839.94
520.682	824.94
520.898	842.94
521.113	894.94
521.329	873.94
521.544	1008.94
521.76	1237.94
521.975	1949.94
522.19	1950.94
522.406	1111.94
522.621	891.94
522.836	780.94
523.052	771.94
523.267	738.94
523.482	724.94
523.698	683.94
523.913	711.94
524.128	700.94
524.343	697.94
524.559	670.94
524.774	681.94
524.989	674.94
525.204	700.94
525.419	673.94
525.634	657.94
525.849	645.94
526.064	662.94
526.28	632.94
526.495	646.94
526.71	640.94
526.925	639.94
527.14	630.94
527.355	624.94
527.57	635.94
527.785	625.94
527.999	633.94
528.214	634.94
528.429	646.94
528.644	613.94
528.859	624.94
529.074	635.94
529.289	672.94
529.503	758.94
529.718	753.94
529.933	674.94
530.148	644.94
530.363	632.94
530.577	608.94
530.792	605.94
531.007	624.94
531.221	628.94
531.436	607.94
531.651	608.94
531.865	602.94
532.08	606.94
532.295	606.94
532.509	600.94
532.724	619.94
532.938	615.94
533.153	644.94
533.367	601.94
533.582	606.94
533.796	589.94
534.011	621.94
534.225	576.94
534.44	594.94
534.654	602.94
534.868	602.94
535.083	612.94
535.297	582.94
535.511	617.94
535.726	614.94
535.94	610.94
536.154	586.94
536.369	596.94
536.583	589.94
536.797	573.94
537.011	566.94
537.225	561.94
537.44	589.94
537.654	580.94
537.868	566.94
538.082	556.94
538.296	569.94
538.51	574.94
538.724	556.94
538.938	582.94
539.153	578.94
539.367	576.94
539.581	590.94
539.795	581.94
540.009	581.94
540.222	573.94
540.436	573.94
540.65	589.94
540.864	583.94
541.078	570.94
541.292	583.94
541.506	573.94
541.72	546.94
541.934	563.94
542.147	555.94
542.361	568.94
542.575	556.94
542.789	560.94
543.002	559.94
543.216	579.94
543.43	581.94
543.644	604.94
543.857	562.94
544.071	576.94
544.285	563.94
544.498	557.94
544.712	553.94
544.925	560.94
545.139	568.94
545.352	569.94
545.566	552.94
545.779	551.94
545.993	541.94
546.206	543.94
546.42	556.94
546.633	567.94
546.847	563.94
547.06	551.94
547.274	538.94
547.487	530.94
547.7	550.94
547.914	540.94
548.127	541.94
548.34	557.94
548.554	533.94
548.767	563.94
548.98	555.94
549.193	544.94
549.407	545.94
549.62	555.94
549.833	552.94
550.046	540.94
550.259	526.94
550.473	520.94
550.686	530.94
550.899	513.94
551.112	532.94
551.325	541.94
551.538	529.94
551.751	552.94
551.964	523.94
552.177	545.94
552.39	533.94
552.603	527.94
552.816	531.94
553.029	569.94
553.242	546.94
553.455	565.94
553.667	575.94
553.88	571.94
554.093	574.94
554.306	532.94
554.519	535.94
554.732	547.94
554.944	541.94
555.157	519.94
555.37	518.94
555.583	529.94
555.795	506.94
556.008	513.94
556.221	505.94
556.433	495.94
556.646	498.94
556.859	479.94
557.071	510.94
557.284	478.94
557.496	495.94
557.709	472.94
557.921	483.94
558.134	488.94
558.346	466.94
558.559	477.94
558.771	483.94
558.984	479.94
559.196	464.94
559.409	485.94
559.621	477.94
559.833	500.94
560.046	491.94
560.258	486.94
560.47	478.94
560.683	466.94
560.895	468.94
561.107	466.94
561.32	479.94
561.532	496.94
561.744	467.94
561.956	451.94
562.168	465.94
562.381	481.94
562.593	507.94
562.805	494.94
563.017	490.94
563.229	498.94
563.441	477.94
563.653	484.94
563.865	481.94
564.077	499.94
564.289	492.94
564.501	494.94
564.713	506.94
564.925	514.94
565.137	516.94
565.349	518.94
565.561	505.94
565.773	538.94
565.985	528.94
566.197	537.94
566.408	563.94
566.62	584.94
566.832	605.94
567.044	588.94
567.255	576.94
567.467	613.94
567.679	615.94
567.891	620.94
568.102	619.94
568.314	606.94
568.526	596.94
568.737	580.94
568.949	550.94
569.161	538.94
569.372	518.94
569.584	515.94
569.795	513.94
570.007	497.94
570.218	537.94
570.43	539.94
570.641	488.94
570.853	473.94
571.064	477.94
571.276	484.94
571.487	464.94
571.698	466.94
571.91	449.94
572.121	437.94
572.333	435.94
572.544	430.94
572.755	432.94
572.966	448.94
573.178	419.94
573.389	437.94
573.6	416.94
573.811	409.94
574.023	416.94
574.234	418.94
574.445	398.94
574.656	410.94
574.867	412.94
575.078	401.94
575.289	409.94
575.501	419.94
575.712	410.94
575.923	398.94
576.134	408.94
576.345	420.94
576.556	396.94
576.767	402.94
576.978	407.94
577.188	412.94
577.399	399.94
577.61	393.94
577.821	412.94
578.032	426.94
578.243	420.94
578.454	689.94
578.665	527.94
578.875	412.94
579.086	393.94
579.297	394.94
579.508	405.94
579.718	382.94
579.929	361.94
580.14	382.94
580.35	361.94
580.561	375.94
580.772	389.94
580.982	376.94
581.193	388.94
581.403	365.94
581.614	377.94
581.825	365.94
582.035	366.94
582.246	378.94
582.456	352.94
582.667	372.94
582.877	357.94
583.087	365.94
583.298	392.94
583.508	378.94
583.719	375.94
583.929	357.94
584.139	368.94
584.35	352.94
584.56	372.94
584.77	348.94
584.981	366.94
585.191	379.94
585.401	386.94
585.611	359.94
585.821	372.94
586.032	360.94
586.242	374.94
586.452	354.94
586.662	370.94
586.872	351.94
587.082	358.94
587.292	354.94
587.502	329.94
587.713	355.94
587.923	368.94
588.133	364.94
588.343	350.94
588.553	348.94
588.762	362.94
588.972	367.94
589.182	365.94
589.392	347.94
589.602	352.94
589.812	342.94
590.022	363.94
590.232	370.94
590.441	329.94
590.651	362.94
590.861	352.94
591.071	349.94
591.281	338.94
591.49	344.94
591.7	356.94
591.91	366.94
592.119	383.94
592.329	351.94
592.539	375.94
592.748	370.94
592.958	377.94
593.167	386.94
593.377	378.94
593.587	381.94
593.796	403.94
594.006	374.94
594.215	379.94
594.424	381.94
594.634	377.94
594.843	378.94
595.053	361.94
595.262	360.94
595.472	370.94
595.681	341.94
595.89	356.94
596.1	371.94
596.309	358.94
596.518	345.94
596.727	341.94
596.937	353.94
597.146	330.94
597.355	324.94
597.564	316.94
597.774	325.94
597.983	319.94
598.192	309.94
598.401	338.94
598.61	322.94
598.819	325.94
599.028	327.94
599.237	319.94
599.446	317.94
599.655	314.94
599.864	320.94
600.073	310.94
600.282	316.94
600.491	334.94
600.7	308.94
600.909	302.94
601.118	314.94
601.327	320.94
601.536	306.94
601.745	296.94
601.953	292.94
602.162	307.94
602.371	317.94
602.58	309.94
602.789	305.94
602.997	312.94
603.206	307.94
603.415	301.94
603.623	286.94
603.832	300.94
604.041	294.94
604.249	299.94
604.458	285.94
604.666	294.94
604.875	290.94
605.084	309.94
605.292	279.94
605.501	292.94
605.709	296.94
605.918	290.94
606.126	305.94
606.334	307.94
606.543	284.94
606.751	281.94
606.96	290.94
607.168	290.94
607.376	276.94
607.585	293.94
607.793	290.94
608.001	295.94
608.21	283.94
608.418	296.94
608.626	309.94
608.834	283.94
609.043	280.94
609.251	294.94
609.459	300.94
609.667	297.94
609.875	284.94
610.083	283.94
610.291	300.94
610.499	289.94
610.707	297.94
610.916	288.94
611.124	302.94
611.332	290.94
611.54	280.94
611.748	278.94
611.955	291.94
612.163	297.94
612.371	290.94
612.579	286.94
612.787	270.94
612.995	281.94
613.203	273.94
613.411	296.94
613.618	276.94
613.826	286.94
614.034	289.94
614.242	293.94
614.449	281.94
614.657	283.94
614.865	274.94
615.072	279.94
615.28	298.94
615.488	247.94
615.695	280.94
615.903	279.94
616.111	278.94
616.318	290.94
616.526	274.94
616.733	265.94
616.941	281.94
617.148	278.94
617.356	265.94
617.563	265.94
617.771	268.94
617.978	275.94
618.185	268.94
618.393	269.94
618.6	269.94
618.807	250.94
619.015	274.94
619.222	277.94
619.429	269.94
619.637	247.94
619.844	285.94
620.051	263.94
620.258	268.94
620.466	271.94
620.673	263.94
620.88	259.94
621.087	272.94
621.294	259.94
621.501	262.94
621.708	256.94
621.915	263.94
622.122	259.94
622.329	256.94
622.536	268.94
622.743	250.94
622.95	240.94
623.157	247.94
623.364	261.94
623.571	264.94
623.778	248.94
623.985	259.94
624.192	254.94
624.399	264.94
624.606	249.94
624.812	223.94
625.019	244.94
625.226	236.94
625.433	252.94
625.639	235.94
625.846	231.94
626.053	232.94
626.259	243.94
626.466	250.94
626.673	235.94
626.879	247.94
627.086	220.94
627.293	225.94
627.499	206.94
627.706	245.94
627.912	237.94
628.119	230.94
628.325	229.94
628.532	245.94
628.738	241.94
628.945	227.94
629.151	229.94
629.357	216.94
629.564	224.94
629.77	225.94
629.976	236.94
630.183	240.94
630.389	237.94
630.595	225.94
630.802	244.94
631.008	224.94
631.214	221.94
631.42	230.94
631.627	241.94
631.833	210.94
632.039	197.94
632.245	221.94
632.451	207.94
632.657	225.94
632.863	221.94
633.069	214.94
633.275	214.94
633.481	209.94
633.688	208.94
633.893	211.94
634.099	231.94
634.305	231.94
634.511	219.94
634.717	204.94
634.923	204.94
635.129	198.94
635.335	206.94
635.541	210.94
635.747	211.94
635.952	208.94
636.158	211.94
636.364	196.94
636.57	216.94
636.775	209.94
636.981	201.94
637.187	205.94
637.392	194.94
637.598	216.94
637.804	197.94
638.009	211.94
638.215	212.94
638.421	202.94
638.626	211.94
638.832	210.94
639.037	191.94
639.243	212.94
639.448	191.94
639.654	204.94
639.859	193.94
640.065	187.94
640.27	205.94
640.475	184.94
640.681	194.94
640.886	202.94
641.091	207.94
641.297	205.94
641.502	196.94
641.707	198.94
641.913	188.94
642.118	187.94
642.323	194.94
642.528	189.94
642.733	187.94
642.939	188.94
643.144	191.94
643.349	190.94
643.554	186.94
643.759	187.94
643.964	187.94
644.169	189.94
644.374	182.94
644.579	198.94
644.784	199.94
644.989	189.94
645.194	190.94
645.399	181.94
645.604	178.94
645.809	193.94
646.014	194.94
646.219	176.94
646.423	187.94
646.628	185.94
646.833	203.94
647.038	184.94
647.243	197.94
647.447	173.94
647.652	181.94
647.857	187.94
648.062	180.94
648.266	188.94
648.471	193.94
648.676	183.94
648.88	183.94
649.085	193.94
649.289	179.94
649.494	183.94
649.698	214.94
649.903	216.94
650.107	190.94
650.312	192.94
650.516	179.94
650.721	186.94
650.925	167.94
651.13	171.94
651.334	164.94
651.539	169.94
651.743	169.94
651.947	152.94
652.152	167.94
652.356	170.94
652.56	142.94
652.764	166.94
652.969	163.94
653.173	169.94
653.377	156.94
653.581	142.94
653.785	151.94
653.99	140.94
654.194	152.94
654.398	130.94
654.602	148.94
654.806	156.94
655.01	142.94
655.214	157.94
655.418	153.94
655.622	154.94
655.826	155.94
656.03	150.94
656.234	153.94
656.438	152.94
656.642	143.94
656.846	146.94
657.049	145.94
657.253	145.94
657.457	119.94
657.661	137.94
657.865	128.94
658.068	112.94
658.272	134.94
658.476	122.94
658.68	122.94
658.883	110.94
659.087	106.94
659.291	101.94
659.494	118.94
659.698	100.94
659.901	95.94
660.105	105.94
660.309	103.94
660.512	93.94
660.716	84.94
660.919	86.94
661.123	95.94
661.326	99.94
661.53	97.94
661.733	88.94
661.936	104.94
662.14	99.94
662.343	93.94
662.546	81.94
662.75	84.94
662.953	91.94
663.156	69.94
663.36	86.94
663.563	97.94
663.766	111.94
663.969	79.94
664.173	89.94
664.376	73.94
664.579	86.94
664.782	78.94
664.985	96.94
665.188	83.94
665.391	85.94
665.594	88.94
665.797	72.94
666	80.94
666.203	77.94
666.406	92.94
666.609	91.94
666.812	90.94
667.015	88.94
667.218	87.94
667.421	76.94
667.624	85.94
667.827	93.94
668.03	82.94
668.232	83.94
668.435	71.94
668.638	64.94
668.841	84.94
669.043	73.94
669.246	78.94
669.449	85.94
669.651	82.94
669.854	64.94
670.057	87.94
670.259	86.94
670.462	83.94
670.665	92.94
670.867	76.94
671.07	89.94
671.272	74.94
671.475	80.94
671.677	68.94
671.88	76.94
672.082	74.94
672.284	82.94
672.487	86.94
672.689	76.94
672.892	73.94
